AccX[mg]	AccY[mg]	AccZ[mg]	GyrX[dps]	GyrY[dps]	GyrZ[dps]	
-65.636002	-119.011002	992.958008	0.883750	-2.235625	-3.088750
-98.576004	-64.843002	961.238037	0.883750	-2.235625	0.000000
-52.582001	-79.422005	1006.255981	1.846250	-32.436249	-4.344375
-0.061000	-65.879997	1011.562988	10.198125	-73.849998	-20.689375
107.116005	-51.362000	1021.445007	-3.465000	-94.771248	-34.536251
122.244003	-63.623001	1007.598022	-6.960625	-53.926250	-31.543751
86.986000	-29.097000	1053.348022	-0.525000	50.999374	-0.490000
12.322001	-115.045998	1615.828979	10.858750	88.847504	12.092500
-43.249001	-65.879997	1186.389038	5.814375	-11.230625	-8.461250
-1.586000	-48.678001	1066.828979	-42.966873	-73.919998	-28.367500
-7.991000	-41.053001	1006.622009	9.121875	-70.253754	-26.411875
44.103001	-122.854004	1712.331055	-61.105625	-44.134998	-1.220625
143.044998	-186.050003	868.335022	-83.886253	-7.446250	55.873123
97.478004	-159.453995	1152.350952	87.211250	32.418751	66.403748
-29.889999	-141.641998	1998.604004	132.562500	7.739375	30.703751
60.389999	0.671000	505.628998	-69.982498	19.971874	-33.442501
170.068008	-2.318000	1998.604004	70.494377	29.754375	-60.549999
44.164001	-3.538000	1187.853027	77.520622	7.660625	-64.981873
-56.181000	-50.751999	1017.480042	-49.533749	-13.763750	-65.253128
263.214996	-204.837997	-269.010010	-60.200001	-28.896875	-42.455002
50.691002	-119.376999	1077.504028	16.021250	-63.831249	-32.803749
104.005005	-264.557007	969.900024	2.839375	2.773750	-83.238747
26.230000	107.725998	982.954041	-6.654375	101.031876	-25.926250
-203.191010	-274.561005	1013.210022	3.298750	34.439999	31.184999
28.792000	-19.093000	997.106018	12.801250	9.870000	26.162500
63.500999	74.419998	1276.425049	13.492500	-13.706875	25.628750
292.373016	-37.453999	1262.700073	44.708126	-122.298752	73.963753
342.759003	60.207001	1289.052002	50.544376	-126.271248	65.852501
298.899994	-29.463001	826.062012	26.950001	-58.174374	37.979374
567.239014	88.511002	1111.968994	61.766251	98.170624	32.506248
188.917007	208.132004	959.286011	42.105000	75.709373	-11.112500
290.665009	133.772995	634.156006	-1.058750	50.426250	-4.567500
143.167007	158.904999	970.997986	-11.532500	49.096249	0.315000
114.070000	281.332001	762.317017	-2.996875	50.448124	-10.132500
-5.795000	228.079010	920.794983	-18.514999	-28.350000	10.342500
-13.786000	95.221001	758.473999	-62.737499	29.736876	21.542500
-91.256004	5.673000	1008.940002	-55.496876	7.332500	23.161249
-163.541000	-101.992004	1052.250000	-61.556252	10.268125	-16.476250
134.992996	-83.875000	883.768005	-8.063125	-55.448750	-47.328751
-58.499001	-246.013000	1062.802979	61.363750	-41.308750	-37.366875
19.153999	-263.398010	1026.203003	33.678749	4.646250	-36.049999
114.375000	-248.880005	914.755981	-13.260625	22.316875	-37.445625
-110.959000	-215.818008	1042.795044	-3.670625	29.820000	-22.255625
14.762000	-270.291016	967.398987	4.935000	43.719376	-32.685623
40.015999	-117.913002	1023.031006	12.608750	44.830624	-20.426874
69.052002	-135.785995	864.858032	-23.450001	-16.270624	10.399375
-25.498001	-108.580002	1020.530029	-6.676250	-31.648750	19.582500
36.844002	-83.752998	1121.363037	27.190624	-14.529375	24.259375
-53.924000	-66.612000	1231.223999	30.834999	31.316250	11.186875
-103.090004	13.725000	1128.317017	31.626875	23.673124	2.918125
-114.497002	20.191000	1125.816040	34.658749	9.331875	-10.478125
-76.311005	48.068001	1126.060059	17.338125	-41.991249	-23.511250
139.934006	50.264000	909.143982	18.129999	-27.737499	-9.480625
133.895004	27.694000	934.580994	11.410000	-40.538750	1.404375
112.301003	54.046001	904.996033	-22.671249	-1.470000	-4.309375
6.039000	46.909000	998.936035	-16.716875	10.793125	7.555625
96.868004	31.842001	998.082031	-21.883751	-41.750626	2.992500
70.089005	50.202999	898.103027	-17.718750	-34.383125	5.346250
97.478004	-15.616000	1056.458984	-13.925625	24.906876	12.656875
16.469999	-53.253002	1103.124023	-16.257500	63.813751	1.583750
-27.816000	22.448000	1124.046997	8.286250	23.292500	-8.347500
38.368999	6.100000	1033.645020	23.366875	-7.748125	-6.807500
-105.652000	41.785000	1084.763062	8.916250	0.153125	0.288750
91.256004	-2.806000	946.842041	-2.222500	4.221875	23.725624
-83.692001	7.930000	1103.489990	4.589375	15.815625	-6.321875
46.055000	53.558002	1150.703979	1.601250	-1.120000	-18.011875
18.361000	94.367004	1048.895020	4.095000	-24.605000	0.984375
104.859001	57.157001	943.242981	4.593750	-10.491250	4.567500
188.307007	36.783001	1105.015015	-15.531250	6.085625	-16.441250
23.607000	41.418999	1048.041016	-21.144375	13.479375	-4.760000
-12.993000	31.415001	972.096008	-18.650625	1.163750	-3.753750
97.234001	58.072002	1134.416992	-17.285625	-17.819374	-10.648750
89.181999	9.638000	946.903015	-21.835625	-11.554375	25.676874
-39.771999	14.457000	1097.145996	-4.781875	0.074375	28.805000
121.329002	-40.320999	1047.248047	3.014375	-13.470625	25.961250
86.620003	62.525002	1009.489014	11.580625	-11.838750	14.831250
34.709000	84.485001	1044.136963	11.414375	2.467500	15.365000
127.368004	20.496000	1091.411987	-7.931875	-38.788750	7.507500
279.868011	-23.546000	957.760986	1.439375	-13.221250	-6.453125
178.425003	-27.572001	1030.900024	2.721250	32.580624	-7.831250
87.840004	-96.806999	885.903015	7.660625	14.468125	-15.268750
200.385010	-75.822998	931.470032	6.186250	-3.613750	-22.141874
162.992004	-34.647999	955.747986	-0.490000	47.998123	-9.340625
-13.725000	-57.401001	966.117981	-5.871250	52.338123	1.172500
-56.181000	-66.673004	1020.591003	-4.720625	10.364375	3.036250
-68.807999	-64.781998	1056.824951	0.389375	-10.692500	-1.413125
-58.681999	-25.437000	1082.078979	3.241875	-7.350000	-6.877500
-53.253002	0.488000	1009.733032	3.640000	-4.812500	-0.800625
-52.948002	-28.914000	1088.728027	2.196250	-26.805626	-0.778750
9.028000	2.196000	1004.975037	0.227500	4.195625	1.789375
49.959000	-4.575000	927.687988	-2.021250	19.306875	10.675000
-2.928000	-25.681000	964.288025	2.690625	3.876250	-4.488750
-8.113000	10.431000	941.656982	-2.966250	-2.266250	-4.453750
-38.063999	-33.123001	1040.964966	-0.428750	-24.898125	-4.913125
77.165001	-51.362000	1048.529053	-6.247500	-16.275000	-0.336875
22.753000	-51.972000	1011.929016	-6.794375	-1.168125	6.028750
-11.346000	-38.063999	1023.824036	-4.213125	-6.601875	2.651250
59.353001	-13.115000	1025.287964	-4.191250	-12.556250	0.253750
43.798000	-23.973000	1037.854004	-4.252500	6.405000	8.675625
12.200000	-20.801001	1024.190063	3.758125	16.738750	4.025000
33.977001	-2.440000	1031.021973	3.775625	4.781875	3.163125
30.988001	13.908000	1012.112000	5.376875	17.963751	4.322500
9.455000	8.235000	1017.785034	3.241875	11.440625	7.765625
30.195000	11.163000	993.263000	0.021875	5.884375	10.425625
15.982000	-39.771999	1027.545044	-2.883125	0.621250	8.356250
25.925001	-26.352001	1031.327026	-8.640625	-7.459375	-1.417500
8.418000	37.209999	1048.346069	-9.043125	-29.373751	-4.838750
63.500999	15.067000	1016.626038	-5.893125	-19.057501	-6.269375
61.487999	8.479000	1036.938965	0.581875	3.303125	2.152500
48.983002	-9.028000	1015.710999	0.262500	13.816250	9.244375
-9.333000	-78.812004	998.509033	-2.139375	20.851250	7.061250
-24.766001	-79.910004	988.749023	-7.441875	8.155000	5.446875
-26.596001	-83.936005	938.302002	-6.339375	-8.076250	3.548125
-5.551000	-88.571999	912.499023	0.507500	-12.101250	7.131250
1.647000	-34.587002	822.828979	3.968125	-12.022500	2.642500
-9.211000	19.093000	715.651978	12.442500	-16.655624	-1.837500
71.187004	52.277000	920.062988	-0.756875	-33.232498	6.142500
158.783005	-57.584000	1123.498047	0.170625	-35.761250	15.456875
79.666000	-54.229000	1274.900024	4.830000	-4.331250	11.453750
101.077003	-39.650002	1203.041992	-12.678750	0.231875	-1.841875
42.272999	-57.218002	1188.036011	-11.265625	-6.785625	-4.401250
69.052002	-60.633999	1127.280029	-8.715000	42.704376	-9.126250
29.219000	-126.270004	1072.685059	-7.288750	62.855625	-5.901875
-2.196000	-107.542999	1040.416016	1.496250	32.602501	-11.296250
-8.357000	-74.664001	1036.145996	-0.415625	11.143125	-15.439375
-8.174000	-77.470001	966.911011	-9.275000	13.116250	-9.108750
-74.298004	-76.006004	920.856018	-5.162500	2.585625	-4.528125
-31.720001	-75.639999	924.577026	6.851250	7.551250	-15.308125
-20.862000	-51.056999	889.502014	16.283751	3.998750	-13.623750
-0.061000	-45.445000	968.557983	16.795626	-6.737500	-9.139375
28.670000	-41.174999	965.264038	11.484375	-5.350625	-1.736875
-21.960001	-55.510002	991.005981	6.335000	2.988125	0.192500
-39.528000	-50.569000	969.229004	2.620625	6.492500	-1.894375
-14.823000	-42.395000	981.246033	-5.171250	-2.506875	-2.310000
-1.586000	-61.366001	1011.502014	-5.499375	0.787500	1.881250
-15.372000	-77.958000	1040.294067	-6.930000	-4.038125	-3.062500
-1.464000	-25.681000	1019.371033	-6.479375	-9.979375	-9.533125
7.625000	-20.434999	1021.811035	-1.833125	-0.087500	-6.365625
-13.054000	-30.805000	1014.186035	3.110625	3.320625	1.509375
-22.326000	-48.250999	956.053040	-2.428125	4.265625	9.909375
-22.204000	-78.323997	1017.723999	-0.411250	8.715000	3.373125
-11.346000	-31.110001	1039.379028	3.456250	-7.861875	-0.621250
-1.891000	1.342000	1048.041016	3.928750	-10.565625	-6.125000
18.117001	26.291000	1060.667969	3.066875	-5.608750	-4.777500
16.348000	25.254000	1047.735962	0.166250	-6.479375	1.373750
-8.235000	-21.472000	1038.525024	-0.205625	5.088125	3.010000
-5.978000	-17.507000	1009.671997	-0.573125	0.455000	1.019375
31.903000	-46.055000	1016.687012	-3.535000	-6.444375	1.470000
14.152000	-45.262001	991.799011	-0.564375	-1.321250	-1.054375
19.459000	-61.854000	1027.057007	-3.893750	-4.348750	-1.146250
20.374001	-45.750000	1006.744019	-0.293125	0.660625	-2.380000
10.065001	-50.264000	1035.780029	-2.353750	3.740625	-1.246875
12.444000	-58.376999	1026.081055	-8.102500	-2.314375	-4.160625
18.117001	-49.837002	998.143005	-7.476875	1.277500	-5.635000
11.163000	-44.225002	993.445984	-2.773750	5.963125	-5.280625
2.135000	-73.566002	1021.384033	-2.708125	0.743750	-4.891250
24.583000	-37.271000	997.166992	0.691250	-5.320000	-4.270000
4.941000	-38.491001	1004.914001	2.883125	0.043750	6.580000
20.984001	-32.269001	1043.161011	0.481250	-0.835625	5.140625
8.845000	-43.493000	1018.639038	2.135000	5.578125	7.770000
-5.124000	-32.695999	1017.480042	-1.688750	1.277500	4.445000
18.483000	-44.225002	1020.835022	-2.086875	-1.995000	2.979375
2.928000	-30.012001	1008.147034	-2.454375	0.210000	2.419375
21.655001	-52.277000	1017.419006	-0.936250	2.030000	3.574375
17.934000	-41.602001	1007.171021	1.163750	-0.717500	2.948750
19.153999	-32.757000	1018.212036	-2.021250	-1.780625	3.766875
4.270000	-43.249001	1005.829041	-2.572500	2.231250	1.728125
13.969000	-56.424999	1005.280029	-1.780625	-3.526250	0.170625
23.363001	-45.628002	1005.645996	-0.643125	-2.983750	-3.071250
35.624001	-54.961002	994.239014	1.045625	-6.750625	-0.358750
24.827000	-51.056999	1021.994019	-1.430625	-0.485625	0.056875
26.352001	-59.719002	1011.319031	1.448125	-2.148125	-1.505000
27.938000	-44.652000	1006.866028	1.207500	-4.208750	-0.822500
30.439001	-56.303001	1010.953003	-1.802500	-0.074375	-0.105000
29.402000	-61.610001	1003.267029	-1.071875	-3.788750	1.006250
27.205999	-59.902000	1041.941040	-2.065000	-3.920000	-2.590000
45.139999	-38.979000	996.739990	0.809375	-3.465000	-2.817500
50.691002	-56.608002	1002.413025	2.030000	1.903125	-2.870000
19.032000	-20.313000	982.710022	2.331875	-2.808750	-4.878125
56.669003	-56.303001	1040.537964	0.638750	-6.654375	-2.506875
23.180000	-80.946999	1014.002991	-0.065625	1.120000	-1.500625
47.763000	-82.959999	1045.906006	1.098125	-5.385625	-4.156250
46.970001	-61.549000	1014.674011	0.700000	-2.248750	-1.933750
40.077000	-31.354000	1022.786987	0.953750	-0.787500	-2.935625
58.132999	-45.383999	1024.800049	0.603750	-1.290625	0.643125
43.066002	-37.027000	997.044983	3.106250	0.345625	0.844375
41.174999	-141.824997	999.729004	-1.076250	0.017500	5.814375
24.766001	-119.255005	1029.070068	7.498750	0.603750	5.998125
46.055000	-68.259003	1022.421021	11.081875	-0.844375	4.484375
54.473000	-40.625999	1002.351990	8.929375	-0.301875	1.701875
105.224998	-17.995001	1031.144043	5.468750	3.355625	2.485000
62.037003	0.183000	984.418030	3.438750	4.580625	6.059375
48.678001	63.684002	1037.792969	6.855625	2.209375	-3.854375
106.750000	69.723000	1027.911011	2.008125	-1.741250	-5.009375
72.956001	15.555000	982.588013	0.406875	1.513750	-0.586250
60.389999	-53.924000	1042.185059	-0.433125	2.966250	3.115000
5.185000	-119.194000	987.406982	-2.642500	4.270000	5.372500
7.076000	-159.027008	1023.885010	-0.323750	6.864375	2.471875
4.148000	-166.835007	963.921997	0.721875	0.485625	6.553750
9.577000	-232.410004	966.362000	4.095000	3.329375	9.861250
-41.236000	-259.799011	1030.717041	7.686875	4.090625	12.355000
33.306000	-268.583008	993.629028	2.708125	-10.001250	14.175000
35.746002	-295.057007	1008.330017	2.830625	-16.309999	24.906876
46.726002	-371.002014	1056.885986	-1.421875	6.046250	37.996876
137.738007	-304.329010	1018.028992	-9.555000	-11.125625	27.055000
183.244003	-206.667999	977.036987	-11.843125	25.860624	44.681873
234.179001	91.927002	1054.567993	4.790625	-12.333125	21.984375
168.848007	157.440994	1107.454956	10.836875	16.511250	60.913124
124.440002	111.264000	1002.535034	8.356250	31.946251	72.239998
-10.431000	137.494003	1099.281006	4.746875	8.360625	63.446251
98.697998	122.487999	1016.077026	-1.474375	-8.378125	55.650002
146.033997	229.970001	1045.661987	17.219999	-4.830000	32.786251
48.922001	285.785004	1026.508057	8.588125	-1.456875	40.459999
164.272995	179.949997	1037.732056	-8.277500	-4.956875	38.211250
65.819000	138.775009	958.066040	-8.767500	-10.591875	14.437500
94.428001	200.690002	962.397034	1.964375	-22.146250	0.310625
40.199001	231.800003	1006.866028	2.773750	-6.912500	-1.360625
85.278000	228.872009	1033.828003	-7.367500	-1.163750	-1.684375
8.662000	147.009995	1078.846069	-17.784374	-10.224375	5.215000
80.886002	68.807999	1328.946045	-12.499375	-13.002500	-1.990625
-8.235000	108.885002	1255.928955	-6.562500	-9.673125	-12.705000
87.168999	113.277000	1367.558960	-13.514375	-9.699375	-16.191875
42.212002	123.037003	1302.105957	-16.388750	15.216250	6.431250
-52.704002	36.660999	1365.302002	-13.680625	40.634998	15.028125
-64.293999	8.662000	1093.791016	4.550000	38.618126	-19.271875
94.123001	-17.385000	1193.708984	15.627500	36.793751	-50.767502
141.397995	32.879002	1248.609009	7.800625	39.108124	-24.902500
42.272999	-184.220001	1231.346069	12.617500	82.866875	-10.526250
228.750000	-167.750000	1196.576050	10.154375	63.796249	-8.605625
-20.007999	-79.300003	920.916992	24.001249	74.217499	9.673125
15.189000	-196.602997	972.645020	8.688750	104.125000	-4.843125
-246.684006	30.805000	692.960022	15.728125	50.889999	4.646250
-297.313995	-135.725006	741.942993	14.511875	55.544998	-14.625625
-355.264008	25.254000	677.526978	14.726250	40.801250	-13.720000
-231.311996	-141.703003	613.294006	8.890000	47.853748	-9.821875
-449.447998	7.503000	597.312012	3.403750	6.033125	-3.495625
-371.246002	-112.301003	606.278992	24.705626	29.684376	-21.196875
-310.734009	-28.121000	675.575012	4.436250	0.756875	-18.760000
-365.329010	-19.825001	670.145996	-4.099375	9.454375	-8.990625
-362.035004	2.257000	612.867004	-13.877500	3.749375	-8.115625
-349.652008	111.508003	548.877991	-20.855625	-17.023125	-3.399375
-352.458008	66.124001	448.289001	7.201250	1.198750	-16.891874
-229.238007	95.891998	589.260010	10.600625	-38.145626	-24.806250
-230.335999	55.754002	554.856018	-2.743125	-24.158751	-27.676250
-47.580002	175.313995	739.686035	-3.294375	-54.656876	-22.889999
-146.705002	24.339001	635.681030	9.117500	-48.247501	0.332500
-51.300999	69.174004	872.726990	12.372500	-82.337502	-7.056875
-26.657000	-61.915001	998.325989	-7.030625	-85.802498	-21.791876
71.553001	34.831001	1114.286987	-12.368125	-100.896248	-31.880625
73.749001	-85.095001	1198.223022	-11.991875	-93.261871	-65.397499
217.831009	-54.778000	1256.966064	-14.918750	-82.967499	-45.281250
147.681000	-276.817993	1318.697998	-16.799999	-61.013748	-49.643124
179.828003	-490.867004	1238.177979	-38.298752	-60.055626	-36.780624
94.976997	-414.190002	1280.755981	1.316875	-38.500000	-30.371250
149.022995	-452.192993	1554.890015	12.267500	-33.845001	-17.075624
126.941002	-403.088013	1520.242065	6.151250	-40.363750	-2.896250
146.583008	-266.936005	1330.410034	11.641875	-16.795626	-2.410625
114.314003	-238.510010	1230.431030	6.361250	-13.995625	-2.401875
168.298996	-170.861008	1076.771973	-1.885625	-3.797500	-1.575000
213.500000	-273.341003	1079.639038	5.407500	13.291250	4.226250
119.194000	-309.514008	968.192017	-2.804375	27.684999	0.586250
162.626007	-320.677002	875.716003	-9.419375	24.880625	-14.056875
176.778000	-437.553009	968.070007	13.138125	50.028126	46.116875
98.576004	-373.686005	934.520020	14.581875	85.443748	44.104374
144.326004	-377.223999	987.406982	-8.841875	76.496872	43.610001
108.458000	-233.081009	918.721008	-18.637501	-15.106875	41.960625
114.985001	-183.427002	972.889038	12.945625	18.773125	36.426250
112.728004	-108.092003	1137.467041	5.858125	26.809999	37.305626
151.462997	56.791000	1042.001953	1.509375	-6.969375	26.350624
175.130997	213.378006	967.520996	16.926874	-4.414375	18.830000
114.192001	259.127991	1138.625977	12.954375	-11.948125	19.385626
11.651000	257.541992	989.237000	-8.898750	1.846250	36.203125
6.832000	258.152008	1027.057007	0.280000	-4.379375	38.386250
38.552002	180.559998	1032.912964	4.672500	14.328125	40.005001
-2.013000	129.197998	963.372986	5.893125	12.989375	32.449375
-23.363001	73.749001	999.851013	6.741875	15.273125	12.915000
-22.082001	18.971001	978.013000	0.616875	4.554375	11.086250
-23.180000	-23.363001	956.419006	3.561250	-4.563125	0.363125
35.136002	-30.195000	978.989014	9.891875	-9.616250	4.589375
-2.257000	-27.145000	1041.514038	13.129375	-8.553125	5.341875
13.908000	4.026000	1101.294067	4.480000	-0.813750	-0.280000
-63.500999	0.061000	1146.677979	0.875000	-7.616875	-0.288750
-53.862999	30.866001	1218.474976	5.096875	-11.532500	3.994375
-75.091003	32.208000	1268.739014	-0.931875	-19.945625	7.918750
-58.804001	51.056999	1328.458008	10.259375	-26.648125	3.753750
14.152000	120.963005	1439.051025	11.904375	-21.774376	4.291875
114.009003	114.131004	1559.526001	2.196250	-10.360000	12.276250
13.969000	98.454002	1376.708984	4.860625	26.070625	10.320625
130.479004	44.225002	1605.885986	-33.048752	27.343750	-5.823125
155.123001	66.917000	1284.477051	-17.399376	13.177500	1.942500
91.439003	16.836000	937.387024	-0.581875	92.605621	3.438750
48.007000	-17.202000	887.794006	13.413750	96.162498	-2.205000
56.181000	-41.785000	989.114990	20.597500	83.181877	-20.619375
165.919998	32.695999	1026.568970	-5.648125	57.137501	6.886250
112.423004	-166.102997	707.905029	29.369375	101.027496	22.623125
-196.542007	-92.720001	549.487976	22.067499	82.123123	8.080625
-250.039001	-79.666000	346.846008	13.221250	52.202499	-7.700000
-321.287018	-77.835999	399.367004	12.411875	46.493126	-24.281250
-437.919006	50.569000	419.497009	-10.587500	23.309999	-13.475000
-491.843018	12.261000	543.510010	12.503750	27.719999	-12.215000
-477.934998	61.487999	750.483032	2.690625	4.948125	11.449375
-404.063995	-45.506001	776.773987	11.554375	13.300000	0.730625
-364.231018	52.154999	752.069031	-5.131875	-9.664375	-11.733750
-325.679016	102.053001	631.166992	-3.933125	-13.606250	-16.528749
-298.045990	211.914001	441.274017	6.348125	-25.440624	-20.006874
-260.408997	129.320007	585.416992	8.028125	-46.073124	-2.520000
-190.747009	143.106003	589.199036	31.062500	-38.626877	-5.722500
-217.587006	138.104004	637.815979	41.142502	-68.368126	-9.524375
-31.598000	178.303009	850.705994	15.570625	-72.025627	-29.828751
110.593002	66.184998	1033.096069	67.059998	-78.504997	-30.585625
28.792000	267.058014	903.226990	31.053749	-83.855621	-47.818748
53.008999	94.672005	1191.146973	25.847500	-94.539375	-25.182501
43.005001	-6.039000	1123.071045	-5.823125	-100.922501	-32.291874
-21.350000	82.106003	1018.517029	-25.357500	-107.419373	-27.243126
166.042007	-88.816002	1118.068970	-30.940001	-79.830627	-5.989375
-67.709999	5.612000	1079.029053	-27.518749	-31.709999	-8.203125
96.929001	-167.994003	1291.735962	-40.031250	-1.395625	-10.268125
