AccX[mg]	AccY[mg]	AccZ[mg]	GyrX[dps]	GyrY[dps]	GyrZ[dps]	
61.366001	-64.476997	1012.478027	-0.161875	-2.467500	-1.785000
56.486000	-54.046001	1017.663025	-1.478750	6.370000	-0.708750
63.013000	-80.459000	1004.364990	-2.209375	8.260000	-1.474375
50.569000	-80.031998	1009.733032	-1.093750	4.239375	-2.664375
46.237999	-73.139000	1013.637024	-0.393750	-0.573125	-3.425625
53.008999	-65.574997	1008.330017	-0.144375	-2.231250	-3.360000
47.396999	-69.540001	1009.062012	-0.481250	-0.091875	-2.091250
55.570999	-76.982002	1006.195007	-0.713125	3.591875	-0.201250
54.900002	-73.383003	1008.817993	-0.188125	1.063125	-0.358750
49.776001	-66.551003	1006.500000	0.144375	-1.207500	-0.201250
48.678001	-70.028000	1009.367004	0.118125	-0.770000	-0.266875
52.764999	-78.750999	1005.768005	-0.074375	0.616875	-0.175000
55.021999	-79.910004	1013.027039	-0.411250	1.478750	-0.275625
46.177002	-68.197998	1006.195007	-0.538125	2.226875	-0.122500
46.970001	-73.626999	1011.319031	-0.503125	2.030000	-0.196875
50.935001	-80.946999	1008.817993	-0.271250	0.896875	-0.249375
41.785000	-63.928001	987.955994	-0.113750	-0.310625	-0.297500
51.728001	-74.054001	1002.535034	-0.516250	1.233750	-0.258125
48.312000	-73.444000	1020.530029	-0.367500	1.303750	-0.385000
47.580002	-79.117004	1019.309998	-0.170625	0.161875	-0.332500
55.937000	-76.189003	1015.772034	-0.056875	-0.813750	-0.262500
50.630001	-73.809998	989.237000	0.170625	-0.218750	-0.354375
47.091999	-74.419998	1008.268982	-0.196875	1.575000	-0.323750
50.691002	-73.931999	1007.109985	-0.376250	1.413125	-0.140000
52.582001	-75.152000	1019.919983	0.000000	0.332500	-0.144375
45.323002	-78.933998	1012.539001	-0.087500	0.315000	-0.266875
53.862999	-73.626999	1010.465027	-0.135625	1.045625	-0.201250
45.750000	-72.346001	1030.107056	-0.424375	0.490000	-0.227500
49.471001	-66.184998	1008.757019	-0.210000	0.026250	-0.196875
52.277000	-72.895004	1006.377991	-0.371875	0.328125	-0.218750
59.109001	-77.714005	1018.455994	-0.223125	0.826875	-0.573125
49.593002	-73.871002	1008.879028	-0.096250	0.595000	-0.393750
50.507999	-72.834000	1010.403992	-0.096250	-0.756875	-0.148750
52.582001	-74.786003	1019.127014	0.008750	-0.551250	-0.262500
50.874001	-91.865997	1050.786011	-0.118125	0.660625	-0.135625
55.570999	-80.641998	1009.122986	-0.376250	0.940625	-0.245000
57.218002	-73.504997	988.200012	-0.258125	0.525000	-0.389375
52.459999	-71.736000	1001.497986	-0.332500	0.153125	-0.284375
51.728001	-71.613998	1009.489014	-0.249375	0.240625	-0.262500
48.190002	-77.409004	1008.085999	-0.280000	0.564375	-0.284375
55.937000	-81.129997	1010.465027	-0.236250	0.087500	-0.284375
48.494999	-69.784004	1012.112000	-0.166250	1.045625	-0.275625
50.751999	-74.054001	1009.306030	-0.385000	2.139375	-0.363125
52.826000	-76.615997	1009.794006	-0.481250	2.362500	-0.231875
49.776001	-73.504997	1009.062012	-0.371875	1.277500	-0.179375
52.399002	-74.542000	1010.281982	-0.179375	-0.529375	-0.280000
48.556000	-71.918999	1008.635010	-0.433125	1.155000	-0.214375
44.652000	-72.346001	1011.197021	-0.669375	1.872500	-0.179375
51.423000	-74.542000	1010.648010	-0.389375	0.315000	-0.332500
54.046001	-72.956001	1010.648010	-0.161875	-0.813750	-0.249375
56.181000	-73.566002	1014.613037	-0.048125	-0.183750	-0.284375
50.813000	-75.762001	1009.671997	-0.227500	1.303750	-0.301875
45.506001	-71.918999	1008.330017	-0.266875	1.325625	-0.266875
50.447002	-71.370003	1010.281982	-0.253750	0.577500	-0.288750
56.424999	-77.653000	1010.770020	-0.135625	-0.052500	-0.341250
50.751999	-72.956001	1010.038025	-0.262500	1.303750	-0.249375
50.630001	-76.860001	1014.125000	-0.306250	1.045625	-0.271250
48.068001	-72.895004	1010.770020	-0.258125	0.188125	-0.297500
48.678001	-75.639999	1013.880981	-0.157500	0.603750	-0.284375
57.035000	-81.679001	1004.609009	-0.284375	1.251250	-0.240625
53.192001	-76.311005	1016.992004	-0.231875	0.752500	-0.262500
51.605999	-71.796997	1009.489014	-0.070000	0.122500	-0.179375
46.726002	-75.884003	1006.500000	-0.065625	0.560000	-0.284375
50.325001	-75.396004	1009.062012	-0.109375	0.962500	-0.323750
47.702000	-72.956001	1015.833008	-0.214375	0.949375	-0.205625
49.897999	-77.104004	1011.624023	-0.135625	-0.380625	-0.306250
51.850002	-71.308998	1012.356018	-0.113750	0.205625	-0.402500
50.996002	-70.760002	1013.942017	-0.446250	0.953750	-0.315000
50.264000	-77.165001	1010.038025	-0.459375	1.185625	-0.271250
50.386002	-79.543999	1010.160034	-0.288750	0.385000	-0.201250
48.190002	-74.724998	1012.966003	-0.166250	-0.280000	-0.231875
54.595001	-72.651001	1008.940002	-0.122500	-0.188125	-0.280000
51.728001	-78.750999	1012.783020	-0.380625	0.385000	-0.258125
48.190002	-69.479004	1012.966003	-0.297500	0.866250	-0.271250
52.277000	-73.931999	1012.721985	-0.586250	1.929375	-0.319375
49.653999	-73.566002	1009.549988	-0.498750	1.618750	-0.336875
46.848000	-70.698997	1012.783020	-0.288750	0.218750	-0.323750
55.144001	-83.387001	1003.999023	0.883750	-2.240000	-0.323750
45.932999	-78.385002	1015.161987	-0.262500	0.472500	-0.231875
36.417000	-80.031998	1008.268982	-0.131250	0.306250	-0.411250
50.507999	-79.422005	1012.783020	-0.966875	-0.420000	-0.503125
51.484001	-85.827003	979.903992	-0.030625	1.290625	0.223125
44.103001	-78.018997	1005.768005	-3.045000	3.850000	0.735000
15.677000	-100.162003	1002.473999	1.032500	42.573124	35.139999
-33.428001	-98.820000	975.939026	-2.537500	15.325625	39.510624
25.742001	-74.481003	1026.812988	-2.870000	-27.041876	35.301876
48.250999	-77.835999	1015.223022	-0.476875	-18.659374	33.656876
41.174999	-79.178001	1011.257996	0.778750	24.412500	37.572498
-7.564000	-87.047005	1013.880981	-3.202500	27.203751	34.978127
-29.097000	-82.289001	1008.025024	-1.640625	3.710000	27.448750
-26.169001	-53.313999	945.012024	-0.818125	-19.464375	18.300625
10.309000	-92.659004	1023.092041	-0.336875	-17.071251	10.495625
-2.745000	-76.189003	1004.669983	-1.137500	1.701875	4.738125
-44.103001	-75.762001	1026.691040	-0.791875	8.413125	-2.340625
-15.250000	-101.565002	1049.016968	1.168125	-8.758750	-4.851875
1.464000	-103.211998	1042.795044	0.398125	-6.553750	-3.548125
-0.610000	-86.498001	1021.994019	-0.835625	6.068125	-1.833125
-25.071001	-71.736000	1010.830994	-0.253750	9.493750	-1.776250
-15.921000	-85.643997	1011.624023	-0.175000	-3.031875	-2.384375
-8.113000	-82.532997	1017.053040	-0.367500	-4.348750	-1.386875
-11.712000	-81.739998	1019.309998	0.030625	5.035625	-0.468125
-12.932000	-78.385002	1012.416992	-0.030625	2.257500	-0.603750
-13.481000	-79.910004	1010.587036	-0.166250	0.643125	-0.105000
-14.640000	-77.042999	1009.306030	-0.245000	2.795625	-0.371875
-11.407001	-79.543999	1008.452026	-0.385000	-0.984375	-0.358750
-6.893000	-76.555000	1010.770020	-0.411250	-0.091875	-0.218750
-15.067000	-77.470001	1008.940002	-0.131250	2.765000	-0.157500
-16.348000	-85.460999	1011.807007	-0.376250	0.140000	-0.065625
-7.625000	-85.155998	1013.575989	-0.336875	-1.483125	-0.153125
-4.331000	-78.995003	1011.867981	-0.170625	2.607500	0.568750
-16.409000	-69.357002	1012.234009	-0.218750	2.695000	1.666875
-2.135000	-92.903000	1038.036987	-0.717500	-3.206875	7.332500
-12.871000	-78.933998	1020.530029	-0.525000	6.895000	7.393750
-14.030000	-69.600998	1010.708984	-0.126875	3.946250	5.250000
-17.202000	-83.204002	1014.247009	-0.109375	-4.563125	3.053750
-8.845000	-86.986000	1011.624023	-0.056875	1.194375	0.455000
-6.405000	-89.059998	991.372009	-0.446250	4.493125	-0.354375
21.594000	-122.244003	1016.565002	-0.078750	-12.473125	10.456250
-71.370003	-76.127998	1019.127014	1.159375	15.920625	18.501875
-34.831001	-69.723000	1037.915039	-6.225625	21.503124	-1.277500
-36.478001	117.913002	1052.615967	13.055000	19.180000	1.745625
-29.463001	-41.358002	952.027039	4.029375	-10.106250	-3.465000
-63.562000	-65.819000	1007.903015	1.837500	-17.780001	-13.177500
-42.761002	-183.671005	1039.073975	0.288750	-12.035625	-1.400000
-21.410999	-65.086998	1043.039062	0.752500	-22.373751	13.212500
101.503998	-200.141006	1106.174072	6.409375	-13.444375	11.554375
-121.939003	-84.362999	1020.835022	26.582500	-66.211250	13.702500
-99.979004	-88.450005	1147.531982	10.823750	-13.693750	8.868125
146.156006	-77.104004	943.548035	4.830000	-21.148750	-7.161875
-39.771999	-68.502998	957.090027	3.850000	-1.780625	-12.735625
-88.876999	-71.431000	319.274017	35.070000	5.748750	8.203125
791.291992	150.487000	1106.052002	76.033127	-16.616249	23.603125
96.746002	-51.850002	868.578979	-18.475624	25.760000	10.990000
61.487999	-112.849998	1088.178955	-29.688749	9.734375	-15.181250
177.936996	83.447998	994.299988	-11.563125	-9.121875	0.345625
9.821000	-34.342999	1073.355957	-28.695625	6.829375	4.239375
67.344002	-65.148003	962.335999	-40.022499	16.148125	3.478125
123.403000	-34.038002	1075.490967	-32.112499	9.100000	8.443750
36.173000	-126.514000	1081.224976	-2.113125	-8.846250	8.281875
57.218002	24.827000	854.731995	9.156875	-20.527500	13.116250
91.682999	-72.223999	1049.383057	4.624375	-1.754375	21.813749
181.414001	-74.054001	1094.828003	-9.633750	0.201250	25.375000
-26.535000	-123.342003	1028.093994	-17.832500	16.152500	12.950000
45.079002	-70.943001	1090.557983	-3.535000	0.354375	23.257500
1.403000	-64.598999	1013.820007	-2.642500	2.380000	22.452499
4.209000	-36.112000	1042.855957	12.722500	14.175000	32.593750
-4.209000	-67.222000	1027.605957	13.750625	24.381874	31.937500
-53.680000	-108.519005	1044.930054	10.535000	-8.754375	15.316875
2.440000	-15.189000	977.890991	15.855000	31.788750	17.023125
19.642000	4.941000	1055.910034	-8.439375	94.307503	20.650000
-80.459000	6.588000	1033.279053	-28.673750	70.258125	28.883751
-70.820999	22.082001	981.856018	-9.248750	49.730625	64.723747
-76.006004	-84.667999	929.762024	14.879375	56.428749	95.445000
-114.252998	-81.434998	958.798035	6.514375	36.575001	56.791874
-90.341003	-13.359000	911.462036	-15.067500	17.543751	20.142500
-229.725998	-20.679001	1056.947021	9.655625	16.056250	25.270000
-281.697998	-122.549004	915.976013	-6.877500	36.513748	7.490000
-346.480011	-120.536003	852.536011	3.823750	44.913750	-3.543750
-412.542999	-79.422005	948.854980	5.477500	36.150623	7.008750
-435.113007	-55.570999	900.848022	-11.611250	11.239375	7.625625
-404.674011	-78.263000	1032.425049	-9.935625	-25.843124	1.776250
-283.040009	-17.934000	929.579041	-24.535000	-29.150625	-4.694375
-324.703003	-10.797000	861.869019	-27.715626	-52.211250	-3.023125
-310.734009	-117.730003	1008.268982	-9.598750	-71.338753	-0.498750
-287.005005	-132.369995	956.968018	6.636875	-59.578751	2.323125
-356.300995	-162.869995	1068.415039	8.198750	-14.275625	-19.783751
-279.989990	-147.986008	1056.214966	-1.579375	-19.998125	-30.480625
-203.069000	-23.485001	917.317993	31.784374	-77.735001	-34.873123
-48.556000	7.808000	1102.391968	21.735001	-70.437500	-42.809376
-0.366000	-48.494999	1086.166016	4.698750	-43.745625	-36.246876
30.743999	-2.196000	1023.580017	20.321875	-23.918125	-30.366875
88.328003	52.764999	1062.192993	39.615623	3.132500	-31.084375
52.459999	54.046001	877.911987	22.133125	25.466875	-25.493126
24.156000	50.751999	998.447998	15.640625	14.013125	-29.163750
56.852001	21.106001	962.031006	17.915625	-15.566250	-35.949375
84.545998	77.042999	1039.317993	24.311874	-1.023750	-46.340000
37.514999	209.413010	825.268982	64.561874	-41.593124	-17.276875
70.943001	102.846001	1019.249023	-16.467501	32.103748	-32.090626
96.989998	118.584000	1095.560059	-27.531876	17.823750	-54.420624
17.934000	-150.365005	864.492004	-73.023125	-13.006875	-39.453751
-53.985001	112.118004	1044.625000	-30.550625	-27.724375	-41.829376
76.555000	99.857002	977.098022	25.628750	-1.312500	-44.480625
51.300999	92.292999	1051.395996	12.075000	18.208750	-43.421875
-25.864000	126.209000	989.298035	-22.124374	56.148750	-14.122500
-93.147003	103.761002	958.798035	-52.880627	-4.331250	70.533752
204.777008	-101.503998	947.025024	-52.753750	-34.623749	59.832500
12.810000	-176.716995	1002.901001	-18.703125	30.165625	4.480000
120.169998	-129.930008	828.257996	0.026250	0.210000	-25.624374
-22.326000	3.477000	972.523010	-8.719375	-34.304375	-41.431252
108.153000	-93.208000	944.829041	-15.522500	-33.324375	-30.463125
114.497002	-40.320999	955.015991	-1.203125	4.554375	-6.243125
58.621002	-83.142998	1057.191040	4.991875	-8.470000	-4.326875
62.890999	-39.894001	995.398010	6.768125	-0.402500	5.035625
-50.386002	-16.042999	913.048035	18.204374	-2.410625	-6.619375
140.361008	-73.016998	1124.718018	37.743126	-22.334375	13.378750
-31.781000	-64.965004	978.135010	4.711875	4.396875	11.930625
168.115997	-96.624001	1170.895020	25.865000	-4.081875	-11.725000
101.748001	-69.295998	1066.097046	12.114375	23.568125	-13.825000
39.040001	-32.390999	708.210022	9.191875	60.497501	-6.855625
-96.684998	-77.348000	944.463013	-3.976875	30.848125	-23.979376
1.037000	-11.895000	1033.339966	-10.036250	4.300625	-20.063749
-12.688000	-41.480000	1061.156006	-14.332500	40.617500	-8.579375
-64.965004	-73.444000	959.103027	-20.825001	76.864372	5.792500
-116.388000	36.234001	857.598999	-18.493126	34.282501	0.599375
-58.926003	-76.127998	991.616028	-17.539375	-8.050000	4.554375
-170.311996	-30.134001	912.926025	0.122500	-8.233750	-2.502500
-156.404007	-34.282001	936.044983	12.451250	-15.631875	-12.149375
-98.697998	-71.675003	978.440002	9.196250	-36.811249	1.172500
-108.397003	-52.764999	1028.520996	23.200624	-58.099998	2.310000
-84.607002	-11.895000	976.182983	23.865625	-44.633751	12.530000
-78.750999	-87.168999	997.411011	13.706875	-45.395000	14.205625
-43.493000	-31.903000	1074.820068	8.736875	-32.235001	-3.250625
32.939999	3.965000	1060.667969	2.996875	-13.956250	-1.776250
26.169001	-25.254000	1049.626953	-12.796875	26.661249	2.283750
44.957001	1.525000	1074.149048	10.657500	-4.589375	-6.877500
181.902008	12.200000	1074.332031	12.433750	-54.578125	-0.822500
160.490997	-4.880000	1012.966003	4.943750	-12.639375	3.915625
82.959999	67.527000	942.999023	12.801250	13.177500	2.489375
148.779007	44.225002	1006.012024	4.891250	-21.511875	9.415000
106.932999	-10.065001	979.965027	0.052500	21.052500	6.951875
81.191002	45.567001	1016.687012	5.110000	30.038750	-6.348125
97.478004	60.512001	1083.542969	6.356875	-5.250000	-7.332500
71.796997	20.679001	1064.816040	-8.076250	-10.005625	-1.614375
28.792000	7.259000	972.462036	-19.744375	10.902500	-5.140625
87.351997	22.448000	1050.053955	7.853125	-26.687500	-8.732500
192.882004	44.469002	1031.265991	3.902500	-2.410625	-5.180000
107.299004	-23.302000	1030.167969	-0.201250	26.105625	3.714375
52.521000	13.481000	986.796997	4.847500	21.070000	-1.299375
22.691999	53.618999	992.653015	2.786875	16.493750	-3.150000
4.148000	16.531000	978.074036	-4.532500	17.014376	3.447500
-4.941000	-3.172000	999.484985	-4.112500	1.408750	1.435000
-9.272000	-9.211000	934.764038	-5.740000	-4.235000	3.395000
-18.117001	-88.328003	1139.419067	3.228750	3.373125	-5.096875
39.466999	4.331000	1031.875977	5.280625	-12.092500	-1.124375
22.082001	10.553000	1058.838013	0.315000	5.525625	2.520000
19.153999	34.465000	941.413025	0.109375	8.465625	5.390000
20.374001	38.979000	994.971008	5.127500	-7.717500	3.876250
78.690002	8.906000	1036.084961	-2.345000	7.472500	9.231250
28.182001	10.736000	961.421021	-3.578750	8.474375	7.875000
-17.080000	25.620001	998.143005	-1.675625	6.466250	4.099375
-16.469999	23.424000	1011.624023	-1.286250	8.946875	0.717500
-55.205002	33.244999	997.106018	-0.896875	3.198125	-5.411875
20.984001	20.069000	1081.103027	0.420000	26.280624	-13.492500
-67.404999	17.934000	999.302002	-1.553125	14.538125	-5.000625
-65.148003	39.955002	974.353027	2.034375	8.470000	-6.225625
-21.472000	66.612000	1017.601990	4.226250	-4.038125	1.658125
-64.111000	40.809002	957.760986	2.625000	-0.800625	11.606875
-58.743000	32.269001	978.989014	-4.165000	9.533125	11.130000
-52.399002	23.241001	991.981995	4.379375	-7.091875	6.256250
-46.299000	45.567001	1022.848022	6.715625	-20.763750	3.622500
-26.169001	51.545002	1019.919983	-2.861250	-20.195000	1.198750
-16.165001	39.345001	1053.348022	-6.461875	-10.329375	2.524375
6.588000	26.291000	997.960022	-3.552500	-14.210000	-4.865000
39.528000	17.141001	1032.425049	-2.747500	-8.426250	-2.012500
18.910000	8.357000	958.249023	-2.340625	3.823750	-3.141250
41.418999	25.254000	983.015015	5.740000	-4.453750	-7.630000
71.858002	-4.514000	1046.760010	3.705625	-14.048125	-1.894375
43.310001	-1.647000	995.276001	-0.503125	-6.133750	-1.990625
48.007000	2.379000	1041.270020	-0.503125	-3.653125	-2.642500
40.199001	5.917000	1036.390015	3.303125	-3.106250	-0.586250
26.718000	14.335000	989.541992	4.335625	1.758750	-0.971250
42.272999	10.553000	1029.863037	1.321250	10.241875	2.034375
43.066002	14.335000	1024.250977	3.521875	2.480625	-0.402500
65.696999	32.390999	1044.869019	4.628750	-3.618125	-2.870000
30.866001	38.247002	1018.639038	1.920625	8.207500	-0.498750
28.182001	36.844002	994.483032	2.139375	6.667500	-0.210000
33.733002	44.713001	1018.882996	1.728125	-2.366875	-0.21000
028.670000	39.650002	1008.268982	0.148750	0.026250	-0.415625
29.889999	38.430000	1004.059998	0.201250	0.188125	-0.118125
15.860001	37.453999	989.664001	0.166250	2.568125	1.330000
26.352001	38.552002	997.898987	1.185625	1.925000	0.643125
25.498001	52.459999	1029.313965	-1.255625	0.245000	-0.153125
18.605000	44.713001	1035.474976	-2.896250	1.491875	-0.892500
14.884000	34.709000	1025.348999	-4.777500	0.945000	-0.857500
3.965000	50.142002	1004.914001	1.977500	-0.883750	-3.727500
30.378000	51.484001	1013.148987	1.435000	-1.697500	-1.649375
29.158001	33.916000	1011.380005	-4.055625	2.975000	0.385000
18.239000	39.711002	992.226013	-0.328125	-1.610000	-3.539375
40.809002	53.802002	1021.750000	0.100625	-4.121250	-3.758125
40.992001	31.049000	1016.687012	-3.513125	-1.535625	-0.538125
57.827999	40.625999	1033.156982	1.583750	-5.893125	-0.441875
37.453999	33.855000	1031.265991	-0.065625	5.158125	3.290000
28.487000	34.526001	1027.728027	-0.647500	2.108750	3.268125
33.855000	31.354000	1035.474976	-1.614375	2.231250	2.769375
35.501999	20.313000	1036.634033	-3.972500	7.000000	1.251250
25.802999	17.080000	1035.170044	-5.131875	3.915625	-0.476875
17.629000	15.250000	1024.129028	-2.366875	4.554375	-5.573750
49.776001	60.268002	1035.536011	1.666875	2.415000	-1.194375
43.249001	48.250999	1035.536011	8.137500	5.328750	5.088125
13.298000	34.526001	1015.650024	5.626250	16.795626	5.096875
1.952000	31.537001	992.470032	1.478750	7.148750	6.475000
-0.244000	41.602001	1009.671997	-0.284375	7.004375	7.183750
8.479000	27.694000	1024.677979	1.286250	8.146250	5.530000
-0.915000	33.244999	996.496033	2.043125	9.170000	4.843125
-15.250000	47.336002	1040.294067	-2.467500	22.312500	1.391250
-27.999001	32.085999	979.538025	-0.866250	14.818125	1.413125
-10.126000	8.113000	946.963989	0.883750	-0.455000	4.261250
-32.635002	-8.906000	937.387024	4.484375	-2.458750	1.575000
-19.153999	17.080000	960.322998	9.467500	-7.551250	-2.047500
-13.298000	17.873001	1040.294067	6.050625	-5.591250	3.071250
-16.469999	11.529000	991.859985	3.333750	-13.006875	7.140000
44.285999	-28.609001	1045.113037	0.853125	-18.427500	14.796250
-0.488000	-17.934000	957.395020	14.700000	-5.906250	13.593125
30.866001	-30.683001	1000.765991	18.961250	-10.482500	19.600000
51.545002	-29.768000	986.736023	15.435000	-4.646250	21.196875
38.674000	-8.723001	976.915039	5.538750	-6.308750	26.372499
67.344002	-79.605003	1156.499023	-3.714375	7.341250	35.463749
-2.989000	-65.879997	1045.784058	5.884375	13.654375	25.755625
20.862000	70.333000	1212.253052	11.186875	1.570625	19.236876
-7.015000	104.859001	1114.592041	-10.049375	3.508750	20.811874
58.499001	150.182007	1185.901001	-19.844999	10.460625	38.845627
67.954002	143.350006	1129.354004	5.801250	24.806250	51.550625
62.769001	82.228004	1184.925049	-7.371875	35.630001	48.374374
111.813004	72.895004	1099.586060	-4.602500	28.350000	43.058750
34.160000	69.905998	1220.244019	2.384375	38.775623	37.471874
26.657000	152.317001	1094.706055	-0.354375	29.841875	34.632500
59.048000	114.375000	1075.063965	-12.446875	17.049376	39.388126
-32.025002	145.302002	1004.975037	-6.339375	19.604376	33.845001
5.795000	148.535004	1046.027954	3.653125	29.820000	14.612500
-90.036003	214.292999	1026.020020	6.444375	51.384377	14.135625
