A_X [mg]	A_Y [mg]	A_Z [mg]	G_X [dps]	G_Y [dps]	G_Z [dps]
15.372000	-27.145000	1002.778992	1.111250	-8.850625	3.110625
13.908000	-35.075001	1005.585022	2.310000	2.086875	4.379375
9.882000	-33.855000	1016.442993	3.084375	-6.111875	4.571875
17.080000	-22.143000	1035.657959	2.791250	3.928750	3.723125
3.233000	-20.374001	1021.932983	2.240000	3.788750	2.200625
3.477000	-31.537001	996.617981	-4.335625	-14.056875	-0.866250
39.528000	-27.450001	992.408997	-4.650625	-9.905000	-0.428750
0.366000	-21.837999	1002.535034	-11.344375	1.522500	5.276250
48.556000	-58.194000	1005.096985	-22.049999	-14.179375	11.996250
98.514999	-43.980999	1064.328003	-4.585000	-19.674376	1.478750
-9.089000	-38.857002	1042.001953	7.533750	17.858749	-17.819374
2.196000	-50.935001	996.862000	5.643750	24.718750	-4.694375
26.413000	-60.573002	1016.077026	1.833125	-3.136875	0.826875
37.820000	-31.720001	1031.937012	6.348125	-8.089375	0.218750
38.491001	-32.818001	1014.918030	5.346250	15.404375	3.456250
7.259000	-35.075001	991.311035	7.231875	15.885625	5.044375
23.912001	-24.705000	1006.134033	6.256250	8.360625	6.208125
-3.111000	-23.668001	1002.901001	-0.021875	9.699375	6.426875
-13.054000	-19.947001	1017.906982	-1.561875	2.843750	4.970000
-7.625000	-26.840000	1044.625000	-5.442500	-17.093124	3.679375
27.023001	-35.014000	1188.218994	2.253125	-19.731251	8.378125
4.087000	-24.521999	1345.964966	22.566250	-22.946875	2.406250
61.366001	2.257000	1334.192017	27.916876	-44.511250	0.201250
54.167999	47.396999	1298.690063	39.523750	-2.086875	3.823750
69.784004	83.631004	1332.118042	29.286249	8.513750	0.756875
32.695999	125.843002	1178.947021	19.586876	40.508125	-4.917500
-2.562000	89.059998	1116.544067	-1.916250	37.751877	-13.982500
19.459000	59.475002	1032.912964	-7.065625	18.488750	-22.356251
21.960001	77.165001	996.923035	-18.151875	18.558750	-23.143749
-20.434999	37.881001	920.612000	-25.331249	12.385625	-15.548750
-81.129997	57.340000	867.481018	-21.376249	27.851250	-17.583124
-43.675999	35.196999	826.428040	-5.005000	38.758125	-22.483126
82.289001	65.209000	865.163025	-17.036249	18.755625	-11.523750
80.946999	9.211000	834.419006	2.900625	12.508125	-2.327500
-7.869000	-18.788000	700.828979	1.531250	40.748749	7.608125
-73.261002	-19.032000	625.554993	-0.879375	37.948750	3.906875
-32.757000	16.165001	578.645996	-18.790625	7.831250	14.315000
-18.788000	-5.063000	557.296021	-22.111250	12.665625	13.501250
-48.007000	-31.415001	597.129028	-12.219375	-0.962500	6.304375
-50.325001	-11.163000	703.452026	-12.648125	-22.036875	3.084375
-47.640999	-41.968002	716.627991	-3.578750	-16.874374	3.106250
-72.041000	-75.945000	755.668030	7.910000	-17.718750	5.280625
-26.779001	-76.127998	717.238037	14.332500	-28.205626	-9.191875
11.590000	-29.829000	970.327026	22.150625	-22.728125	-12.446875
-68.564003	-34.770000	985.820984	-18.812500	-76.619377	-1.382500
27.511000	74.786003	1043.893066	-19.075001	-16.861250	1.903125
-68.990997	6.527000	973.499023	-36.540001	22.014999	7.253750
-36.722000	-51.728001	1214.571045	7.857500	37.563751	4.948125
-48.799999	-16.836000	1636.141968	-14.638750	-86.668747	-7.061250
-70.210999	-106.811005	1639.863037	18.108126	6.553750	1.225000
-48.922001	-55.083000	1548.667969	-1.868125	-7.931875	-4.681250
-45.445000	-106.139999	1445.760986	3.605000	16.060625	1.509375
-62.952000	-92.903000	1301.191040	10.876250	19.665625	1.242500
-43.554001	-56.242001	1061.827026	19.831875	14.218750	-3.788750
2.928000	-12.383000	989.846985	21.310625	3.451875	-3.093125
8.845000	15.067000	955.320984	15.106875	16.371250	-0.914375
-1.891000	17.507000	973.926025	9.800000	0.796250	3.539375
-8.784000	10.187000	987.163025	-3.968125	1.723750	0.638750
-7.564000	5.795000	973.316040	-7.796250	-9.756250	2.183125
-22.264999	7.259000	999.911987	-8.798125	-2.765000	1.561875
-20.618000	14.457000	987.285034	-9.419375	4.646250	2.979375
-7.259000	0.732000	973.864990	-1.185625	-10.053750	2.419375
-2.440000	-5.002000	1005.280029	-0.796250	-4.340000	0.988750
16.287001	-13.115000	991.067017	1.299375	5.180000	0.210000
-6.344000	-30.378000	993.629028	5.543125	4.655000	-2.104375
-2.318000	-15.250000	1009.306030	2.887500	5.534375	-4.051250
-6.405000	-9.455000	1002.656982	-1.439375	2.730000	-3.451875
-21.777000	-14.152000	1003.694031	-3.565625	4.046875	-2.804375
-22.875000	-20.862000	1018.333984	-5.136250	-1.093750	-3.574375
-17.568001	-25.498001	1011.807007	-4.541250	-0.350000	-4.125625
-21.106001	-15.494000	1025.166016	-3.276875	3.635625	-2.524375
-25.925001	-16.653000	1030.777954	-0.752500	-1.242500	-1.601250
-14.701000	-11.163000	1037.792969	1.273125	1.019375	-1.085000
-15.250000	-5.734000	1016.565002	2.428125	3.412500	1.750000
-22.326000	-16.836000	1007.109985	4.755625	2.677500	3.762500
-25.315001	-15.006001	1007.963989	3.355625	2.576875	2.716875
-23.973000	-1.769000	1012.966003	3.416875	1.474375	1.767500
-23.912001	-5.612000	1012.294983	2.756250	2.086875	1.220625
-31.110001	-4.758000	1011.746033	3.465000	1.325625	0.818125
-30.439001	1.708000	1029.619019	-1.063125	0.411250	0.126875
-32.879002	5.063000	1008.817993	-3.863125	2.655625	-0.367500
-27.877001	-9.516000	1014.734985	-3.451875	0.586250	-0.398125
-28.975000	-9.211000	1013.880981	-3.801875	0.266875	-1.220625
-28.426001	-10.004000	1013.088013	-1.548750	0.918750	-1.719375
-23.790001	-4.148000	1018.760986	-0.402500	-1.041250	-0.914375
-27.389000	-2.806000	1010.953003	-1.155000	-1.417500	-0.643125
-24.766001	-10.065001	1025.287964	1.168125	0.945000	0.240625
-25.010000	-16.775000	1124.962036	1.798125	-2.353750	0.148750
-53.253002	-40.199001	1361.154053	3.976875	-10.241875	0.840000
-61.854000	-27.877001	1535.796997	-2.161250	-21.087500	-2.113125
-72.406998	-35.257999	1437.648071	-3.285625	8.373750	0.078750
-104.554001	-22.875000	1253.244995	9.056250	23.646875	-0.918750
-94.367004	22.814001	1176.933960	5.801250	6.947500	3.053750
-73.749001	8.967000	1100.073975	2.213750	1.251250	4.427500
-51.118000	8.601000	1033.035034	4.834375	26.424999	0.634375
-105.896004	48.373001	915.182983	-3.876250	43.662498	-11.497500
-89.609001	65.636002	955.565002	-21.389376	6.081250	-8.522500
-20.923000	47.396999	1070.367065	-25.138750	-14.406875	3.255000
-80.031998	-13.969000	935.923035	-13.400625	26.792500	3.587500
-35.929001	2.745000	855.341980	-5.595625	14.026250	-6.790000
-31.110001	-24.278000	734.013000	5.486250	4.073125	-10.014375
-2.928000	-27.511000	787.083008	-2.047500	14.240625	-4.025000
-50.751999	-52.521000	642.025024	-3.920000	38.486874	4.143125
-97.417000	-74.603004	590.968018	-8.203125	16.760626	1.474375
-45.262001	-72.163002	596.518982	-14.586250	4.313750	-2.410625
-17.385000	-82.899002	569.739990	-14.008750	16.366875	-4.825625
-0.366000	-88.450005	600.544983	-21.848749	15.758750	-8.837500
-32.695999	-63.257000	664.900024	-26.691875	-6.260625	-2.191875
-23.790001	-130.662003	701.500000	-21.021875	-1.868125	0.761250
-50.202999	-171.348999	724.192017	-12.057500	6.243125	-0.651875
-94.672005	-127.368004	742.187012	9.156875	-24.517500	-9.471875
-63.623001	-106.811005	890.783020	20.146875	-35.271252	-11.173750
-107.055000	-103.944000	896.760986	15.793750	-10.031875	-12.420625
-85.948997	-59.597000	1037.182983	6.055000	-18.230625	-3.801875
-144.020996	-65.941002	1116.239014	-24.097500	-31.946251	1.303750
-77.775002	-130.052002	1207.373047	13.711250	0.914375	14.179375
-151.768005	-121.084999	1258.063965	22.049999	-26.389999	10.845625
-149.876999	-43.188000	1542.019043	37.546249	-46.584999	19.744375
-23.058001	-57.218002	1527.013062	12.906250	-50.378124	15.330000
-121.756004	-87.230003	1544.458984	-2.550625	9.611875	3.880625
-77.104004	-86.437004	1365.973022	-0.358750	28.096251	-0.651875
-78.568001	-70.455002	1329.067993	23.638124	14.708750	-5.586875
-95.526001	-61.122002	1285.758057	47.963123	3.246250	-11.191250
2.501000	23.058001	1112.395996	65.511253	19.521250	-5.705000
0.000000	102.723999	993.629028	40.691875	18.624374	-0.468125
-27.389000	95.038002	880.351990	3.714375	16.870001	0.809375
-39.223000	93.147003	869.127991	-22.483126	13.645625	1.141875
-55.998001	62.098000	892.186035	-26.223749	3.355625	8.610000
-58.743000	61.366001	899.140015	-29.386875	2.909375	6.781250
-68.747002	27.632999	954.161987	-25.921875	-2.213750	4.103750
-66.246002	4.880000	974.048035	-26.613125	-0.354375	-2.568125
-58.681999	4.636000	971.242004	-18.838751	6.160000	-4.917500
-50.630001	-22.143000	982.283020	-12.009375	-10.338125	-4.099375
-58.132999	-22.326000	995.885986	2.725625	-6.776875	-2.143750
-53.862999	-30.500000	1019.492981	9.148125	-0.087500	1.386875
-60.146000	-16.653000	1024.129028	8.894375	0.000000	2.388750
-62.525002	-5.429000	1025.471069	5.022500	3.158750	1.010625
-66.978004	-7.930000	1002.778992	3.631250	4.195625	1.028125
-68.502998	-13.908000	1003.267029	-0.901250	3.981250	-1.675625
-64.050003	-6.100000	1006.072998	-1.855000	-1.815625	-3.045000
-58.926003	1.586000	1024.067993	-2.082500	-0.179375	-3.010000
-59.230999	-6.710000	1012.721985	-2.931250	-0.402500	-0.612500
-64.660004	-12.932000	1011.502014	-3.360000	1.981875	-0.708750
-66.856003	-20.007999	1015.772034	-4.900000	-2.143750	-0.581875
-65.696999	-14.945000	1011.867981	-2.918125	2.113125	-2.095625
-66.124001	-8.784000	1003.694031	0.555625	0.004375	-1.535625
-59.230999	-10.797000	1056.641968	3.955000	-2.651250	0.345625
-78.323997	-10.858000	1083.177002	8.623125	-1.815625	2.043125
-95.831001	5.673000	1165.039062	11.033750	-5.201875	0.402500
-106.139999	6.710000	1170.956055	13.466250	-2.380000	-0.743750
-110.959000	23.241001	1144.725952	23.878750	8.946875	-3.346875
-143.472000	37.209999	1220.365967	26.512501	4.768750	-7.048125
-133.589996	87.230003	1288.259033	12.936875	-3.622500	-13.685000
-104.066002	118.096001	1264.041992	-10.311875	7.529375	-9.423750
-162.016006	60.084999	1293.139038	-18.628750	21.673750	-3.661875
-118.889000	24.705000	1305.400024	-13.986875	-10.360000	-0.485625
-64.293999	64.660004	1275.144043	-0.008750	-16.226875	-0.293125
-34.526001	29.585001	1131.244995	5.652500	16.012501	1.929375
-27.632999	63.928001	1079.212036	-1.474375	28.813749	-0.520625
-47.945999	44.957001	907.375000	-9.852500	45.674999	-1.872500
-22.326000	23.241001	754.752991	-28.139999	38.465000	1.920625
-46.360001	-7.076000	687.531006	-0.888125	22.211876	-2.546250
-68.014999	-9.577000	482.815002	2.730000	22.251249	-4.344375
-116.388000	-16.042999	465.979004	-0.179375	57.185623	-2.607500
-111.203003	-11.224000	468.358002	-10.526250	7.039375	-2.537500
-48.434002	-23.607000	515.328003	-25.305000	13.343750	-5.145000
-94.062004	-13.542000	553.148010	-24.526251	16.419374	-8.557500
-113.887001	-35.624001	628.056030	-27.313126	-8.885625	-5.092500
-78.385002	-112.849998	771.345032	-21.109375	-32.948124	-5.158125
-106.017998	-106.384003	792.817017	-14.293125	-28.196875	-2.231250
-76.799004	-118.340004	891.820007	-8.417500	-25.344376	-6.020000
-102.723999	-74.542000	921.161011	-7.883750	-36.789375	2.633750
-115.229004	-35.746002	1011.807007	-9.288125	-18.571875	5.600000
-139.811996	-79.910004	1076.100952	12.718125	-64.750000	9.353750
-152.682999	-140.483002	1124.656982	14.385000	-9.318750	0.892500
-129.320007	-12.322001	1085.800049	-21.555626	16.651251	-5.285000
-153.658997	-97.356003	1294.664062	-51.240002	-33.403126	-11.025000
-128.343994	-193.492004	1346.818970	-21.039375	-22.570625	-16.458750
-156.343002	-244.427002	1457.900024	29.662500	1.316875	-5.608750
-107.116005	-149.876999	1332.422974	43.715000	-17.885000	-1.658125
-101.198997	-102.846001	1301.130005	37.511250	19.923750	11.738125
-95.160004	-60.207001	1140.639038	19.459999	9.476250	6.811875
-84.302002	-46.055000	1074.820068	14.105000	3.946250	3.972500
-90.707001	-36.722000	1021.445007	5.871250	2.524375	8.220625
-44.225002	-44.652000	975.877991	3.552500	-8.487500	13.523125
-24.217001	-48.678001	940.681030	4.742500	-9.528750	18.545626
-25.193001	-30.622000	995.398010	2.091250	-19.263124	17.062500
-22.264999	-36.844002	980.087036	-3.115000	-18.808125	12.245625
-28.121000	-60.024002	998.509033	-2.865625	-13.496875	4.073125
0.549000	-31.049000	1004.182007	-1.780625	-16.450001	-0.682500
7.015000	-46.177002	1026.874023	1.942500	-4.558750	-0.918750
9.638000	-37.698002	1023.213989	3.018750	-7.310625	-2.743125
14.396000	-23.180000	1020.225037	0.175000	-2.677500	-2.030000
9.394000	-26.596001	1022.054993	-0.249375	3.220000	-0.188125
9.089000	-33.184002	1005.890015	3.268125	6.282500	2.931250
-1.952000	-42.517002	1014.856995	2.988125	3.810625	2.559375
-0.244000	-29.097000	1014.186035	3.972500	-3.810625	-2.673125
9.455000	-38.674000	1031.998047	-0.415625	-1.378125	-4.725000
12.749001	-28.792000	1009.916016	-3.976875	1.553125	-5.403125
22.570000	-24.461000	996.312988	-3.653125	-2.489375	-2.826250
19.580999	-25.986000	1005.402039	-2.266250	-0.144375	-1.386875
12.810000	-25.254000	1005.341003	-2.541875	-1.868125	0.358750
19.825001	-29.646000	1005.280029	-2.275000	1.089375	1.929375
15.494000	-37.698002	976.549011	-1.719375	1.071875	2.310000
16.348000	-41.968002	987.773010	1.176875	-2.563750	1.194375
25.620001	-28.731001	993.934021	-3.031875	-1.701875	-0.708750
18.117001	-26.596001	1162.843018	-8.456875	-16.309999	1.531250
1.342000	-74.969002	1288.869019	-2.695000	-15.172500	2.975000
-14.030000	-83.387001	1560.624023	3.990000	-44.340626	0.520625
35.380001	-91.865997	1753.750000	14.008750	-28.385000	0.424375
78.507004	-76.860001	1571.909058	11.436250	5.250000	-2.445625
76.920998	0.610000	1370.364990	3.311875	22.741249	-8.911875
71.248001	-57.827999	1123.192993	-18.265625	20.527500	-11.370625
19.947001	8.967000	889.807007	0.463750	45.556873	-8.566250
46.848000	-13.298000	849.851990	4.348750	66.679375	-3.600625
36.844002	5.917000	784.520996	-3.539375	69.601875	1.986250
30.195000	26.169001	815.265015	-4.493125	27.037500	9.839375
-20.923000	2.745000	723.582031	-4.396875	17.911249	13.072500
-106.627998	-15.067000	569.862000	4.891250	33.459999	6.317500
-54.961002	-37.393002	629.398010	12.359375	42.306252	-1.776250
-78.690002	-28.182001	500.688019	17.276875	25.003124	-4.580625
-78.995003	-32.695999	526.674011	-1.837500	9.795625	-0.280000
-38.917999	-51.910999	526.064026	-8.391250	5.363750	-4.637500
-95.953003	-46.604000	584.807007	-30.174376	1.697500	-0.787500
-92.292999	-66.184998	634.095032	-25.672501	-13.457500	-9.231250
-102.175003	-77.042999	726.327026	-31.141251	-12.411875	-10.451875
-74.359001	-85.888000	746.395996	-15.290625	-18.287500	-6.811875
-66.001999	-91.500000	801.601013	-16.520000	-11.764375	-7.450625
-108.763000	-154.085999	1008.635010	19.424999	-10.010000	-9.830625
-86.253998	-75.334999	1079.639038	-12.906250	-19.652500	-4.480000
-110.043999	-114.802002	1140.883057	10.023125	-5.731250	4.523750
-164.212006	-111.996002	1350.113037	-9.808750	-51.463123	0.691250
-126.453003	-129.320007	1315.160034	11.366250	-28.918751	-0.980000
-172.874008	-107.116005	1454.911011	17.176250	-18.077499	-1.207500
-161.345001	-107.725998	1457.167969	7.074375	-28.984375	-11.291875
-79.056000	-91.682999	1303.020996	8.198750	-1.198750	-6.636875
-94.611000	-105.774002	1264.286011	-5.626250	12.105625	-7.901250
-54.473000	-111.934998	1089.826050	-1.347500	11.606875	-4.528125
-70.515999	-98.697998	1044.320068	6.190625	8.981875	-2.100000
-44.347000	-74.237000	973.559998	13.081250	8.417500	2.900625
-37.453999	-40.320999	993.812012	17.110624	-0.048125	6.186250
-32.208000	-32.146999	988.017029	16.235624	0.096250	7.126875
-34.221001	-7.198000	1007.293030	7.210000	-1.977500	6.632500
-32.085999	-21.533001	1013.759033	-4.204375	-2.948750	4.816875
-47.885002	-26.230000	1004.791992	-8.295000	-4.672500	0.096250
-43.798000	-37.027000	1005.218994	-5.626250	-10.959375	-2.375625
-50.264000	-59.535999	1012.478027	-5.696250	-4.803750	-5.293750
-43.066002	-69.235001	1021.627991	-1.325625	-6.256250	-4.821250
-35.380001	-53.131001	1023.092041	-1.010625	-1.483125	-2.161250
-29.585001	-66.917000	1029.497070	-2.716875	-1.365000	-1.277500
-26.596001	-51.484001	1025.837036	-2.331875	4.458125	-1.106875
-29.402000	-68.320000	1017.114014	-1.929375	1.395625	-1.365000
-36.417000	-72.895004	1007.109985	1.645000	2.318750	-0.551250
-38.125000	-58.926003	997.898987	5.061875	3.924375	-0.433125
-23.058001	-52.704002	995.031982	7.004375	0.739375	-0.612500
-30.378000	-33.916000	1007.903015	9.016875	-0.931875	0.940625
-45.018002	-22.814001	1007.781006	7.148750	3.578750	2.296875
-52.154999	-19.703001	1008.147034	3.801875	1.526875	2.100000
-47.702000	-28.365000	1021.627991	1.898750	-2.135000	2.069375
-37.758999	-38.674000	1022.726013	-0.056875	4.151875	4.558750
-37.332001	-36.355999	1007.476013	0.756875	4.103750	4.768750
-32.574001	-35.806999	1041.697021	2.353750	-0.936250	4.585000
-61.915001	-40.625999	1173.457031	2.051875	-6.908125	4.790625
-92.354004	-35.441002	1410.990967	7.240625	-30.725624	4.488750
-48.373001	-14.152000	1426.973022	14.783125	-23.756250	7.853125
-44.834999	-26.840000	1393.849976	9.209375	-19.114374	11.445000
-30.378000	-36.050999	1297.286987	-3.430000	-33.621876	17.180626
-25.681000	10.553000	1224.818970	1.614375	15.798125	10.543750
-26.596001	49.105000	1174.799072	-1.557500	40.963123	0.188125
8.601000	34.160000	1051.945068	1.067500	59.504375	-1.890000
-19.093000	-7.076000	1100.379028	-18.760000	13.317500	0.691250
-17.141001	-24.583000	1015.528015	-8.093750	17.937500	0.074375
-35.014000	-12.993000	1005.036011	-4.252500	41.711250	3.548125
-39.711002	-26.169001	816.241028	5.661250	29.894375	-4.165000
-73.444000	-36.295002	735.354980	4.165000	17.451876	-1.474375
-73.871002	-15.738000	629.458984	2.393125	-1.610000	1.330000
-47.336002	-55.083000	608.658020	-0.945000	32.480000	0.271250
-68.320000	14.274000	497.333008	-6.724375	47.355000	0.179375
-47.031002	-44.103001	505.446014	-18.414375	-4.816875	0.345625
-4.453000	-42.334000	516.548035	-28.341249	18.252501	-3.596250
-65.026001	-44.774002	547.414001	-27.776875	20.645624	-7.774375
-55.327000	-73.993004	696.070984	-27.015625	-18.449375	-3.272500
-55.632000	-96.563004	755.302002	-14.892500	-15.500625	-0.643125
-142.617996	-150.487000	806.846985	9.401875	-6.405000	-12.035625
-63.440002	-90.097000	861.380981	20.151251	-22.946875	-15.789375
-120.779999	-74.176003	919.392029	41.991249	-32.501877	-9.909375
-78.568001	-38.612999	1006.927002	41.698124	-21.358749	-6.829375
-88.084000	54.290001	1112.030029	12.792500	-65.966248	13.155625
-130.113007	4.270000	1265.505981	2.226875	-26.928125	7.665000
-123.890999	27.145000	1143.505981	0.529375	-31.150000	7.424375
-155.428009	-53.618999	1334.802002	1.386875	1.745625	-2.323125
-102.846001	14.640000	1322.358032	1.973125	-16.716875	-13.597500
-19.825001	4.514000	1368.169067	-9.520000	-15.736875	-10.154375
22.509001	-15.250000	1356.457031	-24.570000	-3.731875	-4.475625
-38.003002	-97.051003	1341.755981	-11.948125	10.701250	-1.907500
-27.938000	-42.944000	1154.242065	8.303750	23.043125	-1.933750
-48.799999	-41.663002	1105.380981	16.091249	10.031875	-1.745625
-33.000999	3.660000	1023.213989	24.688126	2.296875	2.773750
-7.747000	12.139000	994.239014	18.182501	-6.886250	8.268750
-10.187000	-6.344000	990.273987	8.426250	-6.615000	11.729375
1.464000	9.943000	1008.330017	3.276875	-9.397500	9.200625
-14.274000	2.989000	994.971008	-2.856875	0.678125	1.089375
-2.196000	4.392000	995.276001	-8.338750	-3.504375	-5.411875
7.503000	14.579000	1006.988037	-9.174375	-4.751250	-7.428750
12.993000	3.233000	1021.445007	-9.603125	-3.871875	-3.255000
9.516000	-17.263000	1017.968018	-7.770000	0.315000	-0.525000
9.577000	-28.914000	1009.611023	-3.023125	2.489375	-0.879375
5.124000	-19.825001	1015.223022	1.238125	1.312500	-1.579375
-3.050000	-11.163000	1018.882996	3.390625	3.259375	0.122500
5.978000	-10.431000	1013.575989	2.511250	2.533125	1.115625
5.551000	0.854000	1016.382019	2.170000	0.385000	0.813750
3.904000	1.403000	1015.833008	1.715000	1.526875	-0.708750
-3.111000	2.928000	1003.816040	-1.408750	0.328125	0.074375
2.257000	-11.102000	1031.692993	-1.531250	1.596875	-0.328125
-1.586000	-16.348000	998.082031	-2.572500	1.658125	-0.516250
15.067000	-13.969000	1010.221008	-3.377500	1.824375	-0.586250
13.298000	-12.322001	998.325989	-0.778750	0.048125	-0.406875
11.346000	-8.662000	1006.195007	1.588125	-0.428750	1.032500
8.784000	-8.174000	1009.671997	0.052500	-1.693125	2.690625
