A_X [mg]	A_Y [mg]	A_Z [mg]	G_X [dps]	G_Y [dps]	G_Z [dps]
-51.484001	0.427000	989.481018	-2.301250	10.211250	-0.332500
-94.488998	12.627000	912.316040	-21.472500	5.516875	1.763125
-92.964005	-28.059999	833.809021	-14.682500	25.173750	1.128750
-90.889999	-15.555000	866.566040	-1.671250	8.531250	-1.150625
-63.989002	-43.066002	998.630981	18.108126	-6.562500	-1.255625
-39.223000	-15.067000	1199.931030	3.850000	-16.611876	-0.328125
-19.093000	-14.884000	1253.062012	-0.608125	0.516250	-0.021875
-32.513000	-18.726999	1254.891968	3.587500	-3.482500	2.270625
-29.463001	-31.293001	1085.250977	13.960625	17.801874	5.302500
-45.262001	-13.847000	1029.984985	15.019375	-3.578750	4.991875
-39.894001	-2.318000	977.708008	0.091875	-6.776875	0.363125
-47.396999	12.749001	947.330017	-8.386875	-4.865000	-3.430000
-47.031002	0.427000	967.765015	-9.821875	-10.771250	-4.130000
-45.079002	0.244000	989.786011	-5.595625	-4.221875	-4.046875
-46.116001	2.806000	1031.692993	-4.886875	-10.959375	-2.852500
-40.015999	-0.488000	1059.020996	-3.198125	-10.075625	-1.806875
-39.284000	-8.296000	1042.001953	-5.521250	-3.780000	0.218750
-33.489002	-5.429000	1023.031006	-3.438750	3.132500	0.914375
-19.337000	-10.736000	1010.403992	-3.583125	-2.410625	0.463750
-22.814001	-36.173000	1014.734985	-3.885000	-3.027500	-0.175000
-23.668001	-28.304001	986.980042	-1.526875	-2.765000	-1.946875
-14.762000	-30.805000	992.775024	-2.423750	-4.830000	-2.401875
-4.148000	-19.153999	1013.515015	-0.157500	-4.908750	-1.286250
-10.736000	-32.757000	1217.682007	-0.056875	-19.643749	-0.997500
-17.202000	-48.922001	1296.859985	8.054375	-29.610001	-0.818125
44.285999	-10.736000	1310.218994	11.252500	-22.373751	5.005000
30.012001	5.307000	1334.375000	-3.705625	-25.375000	6.965000
44.529999	-13.115000	1339.987061	-17.425625	-9.725625	5.849375
51.423000	-35.075001	1249.218994	-29.071875	-16.327499	2.340625
19.642000	-34.038002	1167.540039	-27.908125	14.188125	2.668750
39.101002	-76.006004	1064.510986	-16.200624	13.846875	3.600625
47.396999	-70.882004	1011.807007	-9.773750	22.631874	4.462500
54.411999	-69.295998	1057.191040	-11.256875	23.703751	4.913125
36.539001	-100.710999	1016.442993	-17.084375	50.443748	4.961250
30.195000	-111.508003	1085.739014	-0.713125	40.836250	4.790625
-10.370000	-84.729004	904.691040	16.725624	46.200001	-0.861875
-31.171000	-116.510002	975.572998	18.628750	46.619999	-1.960000
-36.112000	-83.264999	825.817993	32.882500	18.239374	-5.000625
-78.202003	-71.065002	733.952026	26.630625	45.465000	4.948125
-87.351997	-67.344002	601.093994	18.886875	37.161251	4.068750
-227.408005	-24.400000	518.072998	-4.571875	36.281876	16.935625
-162.931000	-66.551003	559.858032	-13.623750	24.670626	9.419375
-108.763000	-83.631004	633.424011	-16.279375	12.840625	-4.738125
-136.701004	-13.420000	630.374023	-6.002500	7.350000	-11.361875
-115.473000	-28.487000	698.877014	-10.482500	2.576875	-7.455000
-141.214996	-50.264000	707.721985	2.060625	6.286875	2.340625
-141.703003	-52.033001	729.621033	-3.854375	0.052500	3.745000
-169.091995	-19.520000	723.093994	-2.397500	-8.557500	7.183750
-150.548004	-96.929001	764.452026	-0.844375	-20.768126	-5.446875
-119.133003	-60.146000	747.738037	9.318750	-16.069374	-15.159375
-155.854996	-27.023001	867.846985	22.028126	-54.613125	-3.941875
-48.922001	-56.973999	912.194031	-9.065000	-51.222500	-6.479375
-25.620001	-63.806000	1095.316040	9.533125	-18.033751	-14.686875
-3.233000	-88.694000	1271.911011	-0.476875	-60.996250	-21.179375
4.026000	5.307000	1284.781982	18.930626	-47.236874	-31.609375
-68.320000	-29.036001	1603.323975	24.381874	-55.203751	-7.210000
4.819000	91.195000	1715.380981	12.040000	-44.454376	7.135625
-85.095001	53.313999	1868.490967	1.758750	-36.802502	11.274375
-130.417999	-27.145000	1858.547974	-14.581875	-28.879375	-1.216250
11.895000	-32.635002	1489.192993	-9.931250	45.014374	-7.761250
28.914000	-33.062000	1295.822998	1.898750	34.286877	-10.346875
23.180000	-54.656002	1216.401001	13.076875	23.957500	-9.992500
111.691002	-52.582001	1071.343018	31.762501	-6.903750	-5.840625
145.729004	21.106001	1038.708008	11.685625	-16.379999	-2.362500
149.938004	13.969000	866.566040	-12.328750	10.517500	9.170000
56.303001	30.866001	749.994995	-29.255625	50.133125	19.333124
-2.379000	-7.930000	564.859985	-32.952499	52.644375	22.421875
-55.449001	-41.968002	645.807007	-31.771250	29.548750	18.707500
-48.617001	-40.687000	697.046997	-11.335625	5.670000	2.406250
-36.112000	-50.751999	837.408020	-5.656875	14.091875	7.450625
-47.519001	-65.879997	830.332031	4.488750	-1.474375	4.655000
-74.481003	-44.957001	909.265991	12.985000	-21.402500	2.244375
-34.952999	-44.957001	959.164001	12.241250	-23.856874	-0.253750
-34.403999	-25.010000	1021.689026	3.766875	-11.655000	1.478750
-45.932999	-29.524000	1034.193970	-2.152500	-3.552500	4.410000
-47.091999	-44.957001	1031.083008	1.618750	-8.356250	2.555000
-43.126999	-38.247002	1041.087036	6.300000	0.966875	-3.819375
-13.664001	-21.106001	1049.016968	5.643750	-12.652500	-4.615625
0.000000	-33.367001	1046.881958	-0.721875	10.106250	-0.748125
-5.063000	-37.209999	1043.343994	-4.038125	11.143125	-0.030625
-29.951000	-34.892002	1042.795044	-10.110625	1.701875	2.073750
-42.517002	-32.635002	987.223999	-5.057500	6.024375	-2.240000
-56.973999	-42.639000	967.643005	4.773125	3.263750	-7.323750
-24.827000	-38.125000	1010.587036	2.450000	-8.435000	-9.266250
-33.977001	-54.534000	1038.402954	0.008750	-1.763125	-9.375625
-16.958000	-34.160000	1057.495972	1.815625	-8.894375	-9.581250
-9.638000	-33.000999	1030.717041	-7.223125	-6.181875	-7.284375
-5.673000	-53.497002	1004.364990	-8.693125	-12.101250	-6.164375
-22.204000	-96.319000	1028.520996	-5.127500	4.186875	-4.287500
-4.392000	-62.586002	1028.093994	-3.276875	-3.434375	-4.558750
4.453000	-70.028000	1036.511963	4.554375	2.751875	1.071875
1.769000	-45.567001	1024.250977	9.655625	2.327500	0.153125
5.307000	-55.998001	1051.151978	3.460625	5.092500	1.190000
-2.684000	-41.236000	966.057007	-5.328750	1.185625	0.783125
-8.357000	-42.821999	961.481995	-6.466250	2.380000	0.468125
-9.333000	-59.779999	961.116028	-10.447500	-11.515000	1.076250
-1.647000	-58.011002	983.197998	-4.519375	-12.258750	2.135000
6.954000	-59.535999	1052.738037	1.929375	-12.652500	-0.892500
15.921000	-58.621002	1407.575073	-4.646250	-40.298126	-0.415625
22.387001	-98.209999	1518.411987	-13.230000	-19.166876	5.446875
35.380001	-23.424000	1490.046997	14.043750	9.988125	7.590625
16.653000	-128.710007	1365.180054	52.806252	21.415625	6.711250
21.410999	-6.771000	1158.451050	50.955624	-10.692500	-5.543125
32.025002	41.480000	1071.891968	16.633751	-10.421250	-10.438750
148.412994	54.839001	1051.640015	-18.414375	-57.233749	-8.474375
168.177002	22.204000	931.835999	-54.866875	14.568750	7.844375
151.828995	-33.000999	815.997009	-38.395000	88.523750	0.647500
103.761002	6.283000	798.124023	-26.009375	120.382500	-8.649375
9.699000	-97.234001	741.088989	-5.936875	63.332500	-11.256875
-23.973000	-109.678001	785.863037	11.834375	59.556873	-19.744375
-61.061001	-90.219002	745.968994	-0.721875	27.768126	-5.604375
-105.529999	-87.473999	664.229004	-3.521875	26.945625	-2.165625
-89.121002	-90.158005	658.921997	-10.115000	21.953751	2.432500
-66.856003	-38.857002	600.423035	-8.850625	26.315624	2.205000
-102.663002	-42.151001	640.134033	-6.177500	-22.163750	9.301250
-114.862999	-53.558002	699.548035	-10.228750	11.843125	7.433125
-143.716003	-85.339005	701.682983	-9.327500	2.865625	6.829375
-147.253998	-109.861000	809.958008	-6.304375	4.856250	-14.595000
-161.528000	-40.504002	794.708008	2.970625	3.285625	-13.886250
-156.647995	-91.439003	815.630981	4.808125	-13.378750	-8.513750
-121.084999	-91.134003	904.385986	14.297500	-44.436874	-4.685625
-147.742004	-166.957001	978.195984	0.616875	-55.352501	3.364375
-81.191002	-216.733002	986.247986	-14.625625	-32.860626	-3.701250
-80.336998	-106.201004	1106.296021	40.731251	-52.460625	-10.688125
-75.457001	14.518001	1410.320068	48.409374	-17.762501	14.223125
-121.084999	-8.967000	1294.541992	45.753750	-11.353125	16.756250
-90.889999	70.638000	1290.333008	40.118752	-52.823750	24.189375
-84.362999	58.926003	1590.758057	-12.486250	-69.466248	9.695000
-12.993000	-4.880000	1711.721069	-39.917500	-28.481251	-0.743750
7.869000	-38.186001	1560.258057	-45.425625	1.295000	-8.732500
15.738000	-95.891998	1410.869019	-5.411875	25.055626	-16.152500
26.352001	-35.624001	1270.203003	5.438125	26.967501	-22.137501
30.195000	-35.806999	1131.306030	3.710000	26.919374	-15.728125
19.398001	-19.886000	1105.930054	-10.876250	26.040001	-9.646875
-4.819000	-47.580002	1033.279053	-15.623125	25.038124	-1.207500
6.710000	-76.250000	867.237000	-18.375000	23.498125	-0.879375
-34.221001	-82.411003	901.763000	-17.106251	13.632500	0.608125
-75.822998	-42.151001	628.544006	-16.463125	51.590000	5.061875
-115.412003	-55.570999	673.867004	-10.001250	-5.381250	8.172500
-106.750000	-79.910004	778.177002	7.424375	-20.020000	7.953750
-88.571999	-78.445999	881.755005	12.652500	2.388750	8.767500
-73.749001	-68.014999	900.054993	11.510625	-4.961250	5.521250
-29.646000	-96.196999	1012.600037	19.355000	-9.690625	3.027500
-25.498001	-52.399002	1042.185059	-2.156875	-18.099375	-0.546875
-50.630001	-80.581001	1016.077026	-2.187500	1.360625	-2.021250
-61.610001	-48.190002	985.393982	5.932500	-14.262500	3.539375
-41.114002	-57.096001	994.544006	13.615000	-4.869375	3.447500
-49.653999	-42.395000	965.752014	18.392500	1.540000	0.739375
-21.045000	-38.003002	1039.135010	16.843750	-12.070625	-1.155000
-25.681000	-34.465000	1047.796997	7.651875	-3.364375	2.716875
-59.475002	-26.474001	1034.316040	-6.041875	11.011875	7.450625
-60.817001	-40.748001	1042.185059	-4.379375	-2.218125	8.194375
-43.615002	-11.102000	1063.352051	0.214375	1.684375	7.791875
-57.645000	-4.209000	1017.968018	11.475625	6.575625	7.805000
-42.395000	25.986000	987.468018	10.141250	4.340000	9.152500
-52.338001	9.028000	1034.072021	5.831875	-4.322500	7.975625
-50.142002	-12.871000	1003.877014	6.991250	-0.056875	1.168125
-44.469002	-0.122000	979.843018	-1.382500	-2.091250	-0.949375
-52.216000	-25.802999	1019.737000	-6.720000	0.831250	-2.861250
-45.262001	-11.163000	1012.539001	-10.412500	-1.579375	-2.944375
-42.700001	-14.335000	1031.998047	-4.427500	-1.251250	-1.850625
-47.336002	-26.718000	1034.193970	0.665000	-1.391250	-0.945000
-46.360001	-23.302000	1015.040039	-0.271250	0.997500	1.435000
-39.650002	-19.093000	1022.116028	-0.240625	-0.835625	2.069375
-49.227001	-21.777000	1020.835022	-0.630000	0.853125	0.424375
-46.726002	-11.529000	1001.437012	-3.080000	-0.227500	-2.791250
-47.702000	-10.492001	974.414001	-8.176875	2.686250	-1.281875
-47.091999	-16.836000	951.966003	-5.145000	0.743750	-0.651875
-43.431999	-17.323999	906.277039	-3.342500	2.856875	0.503125
-58.072002	-21.960001	900.665039	-1.251250	-1.404375	-1.938125
-68.807999	-33.672001	808.189026	10.548125	11.431875	-9.734375
-54.839001	-34.587002	779.702026	15.863750	29.938126	-7.301875
-76.555000	-26.840000	724.436035	2.183125	8.636250	-9.340625
-42.334000	-20.984001	729.499023	-14.306250	11.169375	-11.913125
-7.381000	-16.287001	1014.613037	-8.916250	-9.660000	-12.127500
-45.628002	-50.202999	993.812012	15.181250	-9.703750	-10.819375
-27.389000	16.226000	999.179993	48.418125	-19.070625	-3.465000
-8.357000	80.641998	1096.414062	37.926876	-2.852500	18.659374
-13.542000	74.907997	1014.064026	-9.279375	-18.624374	12.980625
13.542000	62.586002	1200.723999	-1.106875	-12.337500	19.110001
-14.579000	59.109001	1411.906006	-4.270000	-44.966251	13.352500
-45.445000	33.549999	1590.697021	6.339375	-43.522499	7.826875
-51.179001	65.514000	1658.406982	23.712500	-28.118126	-6.916875
25.925001	90.036003	1573.250977	16.209375	-4.011875	-17.285625
82.959999	84.545998	1470.770996	0.328125	25.042500	-15.570625
18.300001	83.997002	1341.145996	-14.336875	23.423750	-8.478750
27.938000	87.413002	1311.072998	-21.551250	4.978750	-7.336875
-28.182001	47.702000	1231.406982	-35.227501	11.956875	-3.421250
-2.013000	23.118999	1236.836060	-24.696875	7.612500	-1.833125
-22.264999	32.635002	1105.625000	2.174375	10.596250	-1.176875
1.830000	79.971001	992.592041	-9.550625	16.231251	-4.908750
-8.052000	48.739002	919.575012	-7.341250	34.098751	8.260000
-44.408001	-5.490000	757.254028	-7.931875	18.283125	15.050000
27.267000	-29.524000	800.015015	-6.632500	18.182501	10.736250
13.420000	-26.962000	748.104004	-3.521875	45.377499	8.338750
-97.904999	21.837999	467.565002	6.558125	40.131874	3.364375
-85.400002	18.422001	414.433990	24.316250	14.284375	-3.863125
-147.193008	-39.955002	538.142029	2.060625	15.321250	2.603125
5.124000	-54.411999	527.833008	-17.928749	-25.103750	17.701250
-36.844002	-54.290001	526.552002	-37.821877	12.215000	8.929375
-92.170998	-22.631001	709.613037	-21.879375	9.288125	-7.179375
-44.591000	-61.122002	806.664001	-13.908125	-15.071875	-16.095625
-45.811001	-99.307999	805.505005	2.423750	-8.150625	-16.458750
-116.693001	-72.651001	847.106995	6.208125	-1.627500	-18.602501
-96.501999	-89.548004	892.918030	11.064375	-15.338750	-17.193750
-111.569000	-68.930000	978.135010	5.840625	-56.546875	-19.814375
-76.127998	-46.421001	1063.535034	20.531876	-53.606876	-13.833750
-104.431999	9.821000	1276.852051	23.506874	-47.901875	-7.901250
-17.323999	27.999001	1465.708008	23.240000	-18.480000	-5.884375
3.477000	45.688999	1541.409058	17.110624	-27.903749	5.184375
-22.143000	30.378000	1468.391968	-13.028750	15.977500	10.132500
19.215000	18.239000	1288.136963	-8.452500	24.613750	11.340000
-24.339001	-22.326000	1193.037964	-1.155000	15.964375	13.680625
-21.655001	-25.559000	1079.883057	4.690000	14.630000	9.318750
-40.260002	-15.250000	1019.919983	14.140000	18.913124	4.274375
-40.260002	10.614000	973.742981	0.398125	8.080625	4.099375
-18.726999	6.283000	986.187012	-4.497500	7.892500	4.882500
-37.088001	15.067000	1017.785034	10.368750	-0.240625	4.515000
-45.262001	12.749001	996.434998	7.236250	-0.223125	3.670625
-43.371002	30.622000	974.658020	-0.087500	2.174375	0.656250
-46.421001	22.387001	980.757996	-6.050625	4.090625	1.413125
-55.083000	15.982000	988.749023	-13.177500	2.384375	0.354375
-59.292000	-9.821000	1020.468994	-5.201875	0.726250	-1.400000
-44.957001	7.198000	1013.759033	5.560625	-6.111875	0.455000
-39.650002	6.710000	1031.144043	6.737500	-4.659375	2.843750
-27.389000	15.555000	1008.208008	10.093125	-1.933750	3.360000
-29.707001	31.293001	1032.181030	6.046250	-4.230625	3.281250
-39.894001	32.330002	975.450989	0.953750	2.778125	3.994375
-26.047001	20.191000	998.692017	-4.585000	0.249375	3.403750
-13.603000	17.812000	1021.018005	-1.378125	-7.630000	1.369375
-11.468000	20.984001	1033.645020	0.437500	3.762500	-0.446250
-19.032000	23.118999	1021.322998	-0.673750	-0.463750	-3.163125
-27.450001	21.960001	996.923035	-0.700000	-1.688750	-3.285625
-21.106001	28.059999	973.742981	-2.712500	2.765000	-1.233750
-11.895000	7.198000	1021.140015	-1.658125	2.270625	-0.363125
-23.424000	0.122000	1061.827026	-7.231875	-1.981875	-0.231875
-42.151001	10.370000	1021.627991	-9.393125	11.856250	-1.343125
-59.902000	5.429000	991.067017	-7.170625	7.231875	-5.114375
-58.804001	12.932000	950.197021	-3.386250	7.078750	-6.221250
-55.083000	17.873001	891.393005	-0.651875	5.963125	-6.794375
-52.216000	4.331000	914.512024	-1.172500	-4.462500	-7.109375
-63.806000	-17.750999	777.078979	-8.583750	12.731250	-8.098125
-49.288002	28.182001	895.053040	-27.860001	-9.349375	-5.053125
-51.972000	-38.063999	919.635986	-26.455626	8.771875	-1.920625
-12.444000	-24.827000	858.514038	-31.906876	-4.768750	-2.550625
-30.805000	-77.165001	1001.497986	-12.893125	6.755000	2.695000
-30.500000	-82.959999	991.127991	3.583125	14.227500	6.146875
-3.721000	-48.983002	971.546997	28.988750	-9.756250	8.680000
-26.169001	-77.775002	1108.675049	35.249374	-31.727501	12.547500
17.568001	-70.882004	1110.566040	31.565624	-19.333124	13.829375
25.498001	-35.624001	1203.041992	-3.093125	-17.902500	-2.056250
20.679001	-9.760000	1238.421997	-3.915625	-26.359375	-3.758125
-72.834000	-48.799999	1403.915039	1.640625	29.973125	-4.392500
-51.850002	-38.247002	1340.230957	17.661875	-4.760000	-1.163750
-53.253002	-38.430000	1308.633057	39.103748	-11.025000	3.163125
9.943000	64.171997	1420.994995	28.209999	-22.421875	-3.745000
-42.212002	50.630001	1470.161011	5.656875	1.513750	-6.956250
15.738000	56.791000	1388.482056	-1.308125	-0.201250	-9.782500
43.005001	124.135002	1299.421997	-2.380000	8.426250	-4.348750
27.938000	124.745003	1318.270996	-11.038125	3.517500	1.518125
2.501000	52.459999	1200.358032	-37.931252	-26.753124	4.366250
51.910999	31.232000	1190.109985	-43.505001	-5.158125	2.428125
135.237000	58.072002	922.625000	-53.064377	-0.538125	14.376250
26.596001	60.633999	729.742981	-2.113125	4.134375	19.508125
-15.494000	49.776001	649.039978	-8.925000	43.841873	34.457500
-5.795000	-72.528999	631.716003	14.752500	65.966248	11.978750
-8.601000	-79.361000	643.794006	23.909374	45.198124	-2.681875
-48.983002	-33.367001	491.964996	30.520000	74.860626	-16.021250
-48.007000	-21.106001	484.766998	-5.560625	38.994373	-1.837500
-51.300999	-47.275002	554.612000	-13.645625	12.888750	-0.651875
-27.694000	-53.680000	517.707031	-32.803749	0.748125	-5.145000
-70.882004	-42.028999	637.877014	-41.015625	13.890625	0.354375
-94.611000	-64.538002	670.512024	-23.309999	-32.296249	-5.446875
-83.814003	-132.369995	785.984985	-4.287500	-26.582500	-13.046250
-65.148003	-124.562004	844.057007	-3.504375	-16.043125	-18.628750
-130.356995	-98.576004	947.330017	13.028750	-8.220625	-19.215000
-82.716003	-129.076004	1012.294983	15.071875	-1.080625	-20.142500
-80.093002	-59.841000	1119.593994	29.413124	19.175625	-12.919375
-183.182999	-98.942001	1230.125977	23.607500	-23.205000	2.520000
-87.840004	-78.018997	1429.229980	50.325626	-58.467499	3.416875
-70.943001	3.111000	1453.447021	5.709375	-22.741249	15.513750
-99.064003	-50.996002	1317.295044	2.388750	-0.525000	7.004375
-47.824001	30.134001	1279.291992	0.555625	-23.743126	6.601875
-81.434998	-14.030000	1232.870972	-13.755000	3.123750	3.976875
-25.132000	-3.660000	1040.721069	-7.813750	-8.631875	1.715000
-39.955002	-27.023001	1043.649048	6.868750	4.064375	3.731875
-18.300001	-24.461000	999.911987	4.396875	-5.726875	2.165625
5.246000	-52.643002	990.273987	5.285000	-10.972500	4.081875
-13.786000	-40.077000	1009.489014	9.887500	-8.172500	3.399375
-6.039000	4.026000	1018.700012	4.375000	-5.560625	-0.170625
8.967000	18.361000	1008.147034	6.230000	-5.131875	4.248125
26.718000	31.110001	1016.260010	4.917500	-1.264375	7.428750
23.790001	9.638000	1031.754028	-2.152500	-1.330000	7.634375
36.173000	13.969000	990.091003	-3.023125	-8.163750	3.539375
9.516000	-15.372000	1029.680054	-5.057500	18.541250	2.664375
-2.135000	-0.244000	1023.335999	-4.847500	2.213750	-1.408750
11.956000	-9.577000	1021.872009	-3.211250	0.848750	-1.351875
10.126000	-21.228001	1012.539001	0.332500	9.953125	-2.012500
-6.954000	-16.226000	1020.713013	0.065625	0.835625	-1.999375
-4.758000	-15.250000	1004.364990	0.323750	-0.577500	-2.751875
0.793000	-11.956000	994.299988	-0.275625	3.110625	-2.008125
-8.296000	-6.100000	1015.893982	1.960000	4.261250	0.096250
-2.196000	-7.869000	1017.480042	3.963750	-1.015000	1.146250
0.183000	-10.858000	1022.177002	5.827500	1.238125	2.016875
0.976000	1.952000	1015.588989	3.963750	0.870625	1.286250
-7.442000	-1.464000	996.374023	-2.200625	6.098750	-0.861875
-6.161000	4.148000	990.762024	-0.481250	0.271250	-0.853125
-0.305000	1.220000	992.470032	0.179375	1.964375	-0.494375
-6.954000	2.440000	1002.718018	2.891875	4.506250	0.997500
-6.344000	0.671000	1011.135986	1.268750	0.380625	1.793750
-2.745000	1.891000	1008.695984	1.067500	-5.245625	0.328125
-1.586000	0.122000	1170.102051	-0.310625	-8.474375	1.006250
-11.773000	6.222000	1400.803955	-7.695625	-18.392500	-2.520000
-46.786999	8.113000	1517.863037	-7.525000	-35.354374	-5.442500
25.254000	24.034000	1445.029053	-3.241875	-9.480625	-8.085000
12.566000	37.820000	1327.115967	11.501875	-21.800625	-9.266250
66.368004	65.331001	1180.959961	-1.557500	-50.373749	-6.934375
95.953003	120.048004	-18.544001	-18.059999	-51.642502	-5.595625
