A_X [mg]	A_Y [mg]	A_Z [mg]	G_X [dps]	G_Y [dps]	G_Z [dps]
35.380001	-40.687000	936.898987	-1.308125	-35.406876	10.482500
29.402000	-39.406002	968.863037	13.028750	-33.494999	9.305625
100.284004	-15.921000	1017.723999	23.082500	-7.739375	5.127500
114.375000	-22.814001	1060.667969	16.922501	-13.361250	9.940000
76.494003	0.305000	1021.994019	1.093750	0.765625	11.628750
83.021004	-17.385000	1009.244995	1.491875	-0.577500	8.951250
61.671001	1.342000	1012.966003	0.608125	1.487500	6.400625
79.543999	0.549000	1025.227051	4.051250	3.771250	0.000000
52.459999	26.047001	1021.750000	10.815000	9.948750	-2.616250
95.953003	25.437000	1034.376953	2.301250	6.431250	-3.539375
73.016998	32.513000	1028.826050	-3.548125	7.398125	-0.573125
60.389999	20.862000	1012.112000	-5.468750	9.533125	-1.137500
68.685997	12.505000	1012.356018	-4.869375	2.878750	-0.835625
53.924000	9.211000	1013.027039	-1.715000	4.799375	-1.640625
60.817001	4.453000	1014.369019	-2.708125	0.818125	-1.553125
51.423000	-0.366000	1017.419006	-6.085625	4.816875	-0.765625
51.850002	-20.801001	1136.674072	-7.035000	0.997500	-0.980000
39.955002	-11.712000	1258.674072	-15.566250	-6.116250	-1.513750
70.150002	-47.885002	1285.758057	-13.505625	-1.999375	-4.016250
32.513000	-32.452000	1314.183960	-15.531250	3.298750	-5.000625
37.332001	-27.267000	1224.453003	-9.791250	-0.083125	-3.906875
27.023001	-46.970001	1208.958984	9.410625	4.099375	-5.460000
28.121000	-17.507000	1170.589966	13.483750	15.496250	-8.868125
-33.428001	9.211000	1087.995972	16.821875	27.623751	-11.060000
46.970001	-33.367001	1039.989014	12.376875	-13.597500	-5.328750
42.456001	-19.153999	1069.573975	-15.268750	0.546875	1.767500
60.389999	-54.290001	1045.844971	-17.395000	39.020626	6.759375
-3.294000	-20.740000	946.842041	-16.830626	24.648750	8.295000
-23.790001	-59.292000	1007.293030	-18.283125	24.631250	15.225000
-38.186001	-73.139000	942.450012	-19.569374	20.886250	10.780000
-16.653000	-76.494003	894.687012	14.376250	33.805626	-0.166250
-26.230000	-96.380005	839.908997	15.334375	38.937500	0.586250
-52.338001	-52.216000	792.145996	-0.450625	28.026251	12.499375
-74.237000	-55.510002	788.181030	3.408125	38.202499	23.686251
-94.245003	-40.382000	765.916016	7.083125	24.443125	11.633125
-114.497002	-25.132000	727.729980	16.415001	30.187500	0.756875
-131.516006	-9.455000	664.778015	4.843125	19.123125	0.420000
-142.862000	-20.923000	651.296997	-18.173750	12.123125	6.260625
-119.071999	-24.644001	698.389038	-25.160625	-3.084375	1.238125
-117.242004	-58.438000	800.564026	-20.251875	-16.384375	-2.043125
-135.419998	-81.801003	803.369995	-16.218124	5.451250	-5.919375
-121.024002	-93.085999	815.692017	-12.114375	-17.495625	-11.480000
-104.249001	-107.116005	827.770020	-12.560625	-12.368125	-7.520625
-110.166000	-125.111000	796.721008	4.672500	8.767500	-10.119375
-136.701004	-78.263000	823.195007	16.799999	-29.496250	-17.731874
-136.152008	-20.374001	766.830994	25.528126	0.599375	-8.400000
-102.785004	-39.406002	773.479980	35.695625	-44.738750	-15.115625
-109.007004	-8.235000	932.934021	26.586876	-13.820625	0.188125
-95.526001	-22.264999	1381.650024	-16.988125	-94.303123	-6.601875
-69.662003	12.261000	1642.791016	3.613750	-42.349998	4.598125
-56.973999	-68.990997	1621.929077	-17.023125	20.396250	-2.996875
-65.941002	-63.440002	1512.373047	33.398750	4.138750	-8.890000
-99.307999	-20.434999	1420.323975	35.914375	28.026251	-7.918750
-65.209000	33.123001	1270.203003	23.069374	-2.358125	-1.903125
-62.769001	33.428001	1107.942993	1.286250	25.068750	4.283125
-64.171997	16.104000	985.455017	-7.625625	8.570625	4.134375
-74.176003	4.209000	962.945984	-9.813125	8.500625	5.950000
-74.114998	2.745000	980.330994	-9.747500	-2.817500	1.557500
-54.046001	-16.896999	996.252014	-9.686250	-3.561250	0.940625
-56.913002	-1.159000	991.189026	-1.395625	-1.728125	-0.039375
-53.070000	2.318000	980.208984	2.773750	1.666875	0.030625
-70.820999	7.137000	1011.929016	-4.449375	-5.363750	-2.183125
-68.320000	0.610000	1006.988037	-4.270000	-2.030000	-2.948750
-58.316002	7.442000	1017.236023	-3.972500	-3.189375	-2.835000
-54.229000	-5.063000	1034.926025	-5.070625	-3.718750	-2.113125
-52.338001	3.965000	1022.481995	-2.366875	-0.901250	-1.080625
-54.167999	-16.836000	1026.812988	-7.179375	1.015000	-1.220625
-49.105000	-26.474001	1011.502014	-4.812500	-1.067500	-0.455000
-50.202999	-41.418999	1013.575989	-5.582500	1.719375	-0.756875
-44.957001	-37.942001	1015.893982	-5.486250	-1.946875	-2.021250
-41.174999	-36.966000	1002.596008	-4.169375	2.003750	-2.056250
-52.948002	-34.221001	1009.306030	-3.145625	0.490000	-1.544375
-54.778000	-32.757000	1005.280029	-0.516250	1.330000	-0.962500
-53.985001	-30.439001	1023.824036	-1.032500	-0.323750	-0.669375
-51.056999	-38.491001	1018.333984	0.726250	0.236250	0.170625
-54.656002	-29.585001	1012.600037	1.102500	0.070000	-0.853125
-49.410000	-32.208000	1001.924988	4.103750	1.631875	-0.122500
-49.105000	-33.184002	1022.543030	2.773750	0.223125	-0.813750
-51.545002	-26.047001	1024.617065	1.548750	-0.332500	-1.299375
-42.212002	-34.282001	996.801025	0.494375	-0.035000	-0.258125
-43.675999	-31.598000	983.929993	-2.231250	-0.328125	0.306250
-49.043999	-34.770000	1006.988037	-4.291875	-2.388750	-0.735000
-40.320999	-28.548000	1074.636963	-5.481875	-2.218125	-2.380000
-85.217003	-49.043999	1287.709961	-15.548750	-18.243750	-3.530625
-56.669003	-82.959999	1453.508057	-9.826250	-19.604376	1.330000
-109.312004	-97.783005	1542.385010	-8.133125	9.244375	0.997500
-96.075005	-54.778000	1435.269043	2.375625	17.224375	-0.700000
-98.881004	-48.250999	1303.936035	7.048125	23.095625	3.233125
-83.509003	-64.050003	1168.088989	8.054375	6.759375	-1.605625
-36.966000	-54.595001	1084.640991	14.651875	13.352500	-6.269375
-55.327000	-12.810000	1017.419006	24.456249	24.080000	4.711875
-94.855003	-49.105000	929.579041	15.225000	18.838751	8.242500
-74.481003	-15.616000	986.369995	7.695625	10.688125	9.222500
-74.664001	-2.745000	872.848999	-8.036875	26.219376	12.302500
-105.408005	8.784000	811.544006	-9.668750	42.074375	15.951250
-76.250000	-5.429000	797.635986	0.157500	11.515000	4.081875
-62.098000	-10.065001	779.640991	8.273125	41.593124	-6.510000
-113.033005	2.806000	593.346985	-3.631250	21.385000	3.618125
-122.061005	-6.039000	653.859009	-2.104375	15.820000	6.645625
-130.540009	-25.071001	619.638000	1.242500	27.304375	2.839375
-134.626999	12.078000	563.884033	-6.733125	2.743125	0.704375
-135.602997	7.686000	566.080017	0.293125	-6.002500	-2.467500
-120.902000	2.989000	606.705994	-3.325000	-16.423750	-2.358125
-102.418999	-27.084000	681.614014	-4.773125	-17.985624	7.761250
-119.194000	-65.819000	670.512024	-13.435625	5.131875	14.940625
-184.585999	-91.865997	683.749023	-13.864375	-5.289375	12.919375
-135.175995	-74.298004	868.030029	-12.381250	-6.960625	-19.591249
-166.652008	-16.531000	909.449036	-25.646250	-12.315625	-13.833750
-109.983002	-69.479004	1046.821045	-19.215000	-1.124375	-21.896875
-160.917999	-67.527000	1031.144043	3.985625	-29.496250	-12.700625
-106.932999	-91.134003	1120.386963	6.072500	-57.238125	-25.313749
-112.118004	-19.459000	1260.808960	32.401249	-59.088749	-25.204374
-6.405000	36.844002	1212.984985	31.766874	-50.238125	-25.348749
-35.868000	12.383000	1372.805054	38.176250	-41.155624	-9.327500
-36.050999	19.886000	1451.494995	18.991875	-27.195000	-3.880625
-33.916000	57.218002	1359.690063	-12.901875	7.415625	-1.640625
-9.089000	24.583000	1309.974976	-15.487500	0.936250	5.757500
-38.247002	-30.134001	1243.790039	-15.299375	26.919374	14.630000
-38.917999	-63.989002	1178.458984	0.984375	6.995625	2.091250
-27.632999	-20.069000	1065.670044	1.085000	21.468124	4.716250
-48.799999	-31.049000	1031.327026	-7.875000	8.846250	2.117500
-42.761002	-46.421001	1032.973999	-16.187500	13.260625	-2.069375
-33.062000	-60.024002	1005.950989	-20.737499	1.045625	-1.203125
-15.555000	-48.190002	996.801025	-10.010000	4.528125	7.735000
-27.511000	-52.094002	983.686035	-3.714375	3.115000	12.560625
-42.577999	-43.615002	959.652039	3.583125	2.843750	12.118750
-42.882999	-29.951000	963.739014	2.804375	0.831250	5.543125
-45.506001	-32.085999	997.166992	-1.373750	5.630625	1.920625
-49.348999	-44.529999	1061.400024	-6.978125	-5.446875	0.861875
-41.236000	-59.048000	1013.027039	-5.845000	-7.157500	1.583750
-43.859001	-58.011002	993.629028	9.078125	-2.187500	3.635625
-36.904999	-58.804001	1004.731018	14.083125	-1.802500	1.728125
-32.939999	-40.015999	989.908020	11.515000	-0.905625	-0.498750
-26.840000	-29.646000	1010.648010	8.330000	-3.941875	-1.106875
-42.517002	-29.889999	1047.431030	1.321250	5.398750	-1.933750
-37.698002	-25.559000	1015.772034	-2.515625	0.616875	-3.311875
-45.262001	-39.284000	1011.867981	-4.777500	1.417500	-2.270625
-40.382000	-51.605999	1001.681030	-0.953750	-3.189375	-2.511250
-23.607000	-38.430000	971.059021	-0.966875	-3.408125	-1.378125
-28.609001	-38.674000	980.087036	-0.004375	-3.885000	-0.284375
-20.862000	-36.112000	984.967041	-0.914375	-4.213125	-1.566250
-24.888000	-31.110001	987.651001	-6.689375	-4.900000	-2.121875
-12.932000	-42.272999	1275.144043	-1.754375	-11.335625	-2.581250
-70.760002	-93.573997	1506.700073	-10.876250	-3.399375	-1.413125
-79.726997	-62.890999	1485.045044	-23.288124	-4.615625	-10.364375
-96.380005	-103.151001	1452.714966	-10.701250	-15.763125	-8.220625
-39.040001	-96.319000	1340.474976	8.211875	12.761875	-8.566250
19.032000	-104.309998	1263.797974	2.170000	13.190625	-3.115000
62.464001	-105.957001	1140.029053	2.156875	-23.852501	-6.514375
-24.034000	0.549000	930.494019	17.635626	6.116250	5.779375
40.320999	-31.354000	919.697021	5.858125	45.626877	7.896875
-24.705000	-30.073000	844.666992	-5.215000	31.469376	8.951250
-76.250000	-62.646999	882.121033	-22.640625	47.171249	3.858750
-65.270004	-17.995001	869.005981	-34.404999	48.291248	11.856250
-95.526001	-46.299000	807.945007	-6.457500	47.683125	7.905625
-74.724998	-64.476997	775.614990	2.655625	18.628750	11.322500
-156.343002	-70.333000	624.030029	21.739374	44.362499	6.645625
-193.003998	-63.195999	550.890991	14.245000	45.517502	5.980625
-164.089996	-74.419998	578.280029	3.990000	-8.190000	7.805000
-79.300003	-99.125000	643.122986	-2.445625	-4.418750	-1.916250
-85.278000	-44.774002	735.233032	-0.354375	-20.028749	-10.246250
-67.527000	-26.230000	739.625000	8.067500	-11.886875	-8.583750
-87.291000	-59.963001	854.671021	2.953125	-30.156876	-10.513125
-78.323997	-105.652000	719.617004	-20.142500	-23.751875	-3.762500
-66.306999	-58.376999	844.117981	-2.108750	-18.589375	9.498125
-74.724998	-72.834000	866.444031	5.022500	-60.707500	0.752500
-49.043999	-55.937000	952.332031	25.886875	-63.813751	-3.412500
13.298000	-67.832001	980.026001	4.676875	0.424375	-15.400000
-40.320999	-49.959000	1056.214966	-22.194374	-28.686874	-7.030625
12.566000	-99.247002	1072.928955	-20.133751	-26.801250	-17.325001
2.928000	-50.691002	1124.229980	-14.630000	-0.901250	-12.866875
-8.479000	-123.098000	1184.681030	0.035000	-0.520625	-13.741875
-18.971001	-78.933998	1157.230957	10.434375	-0.910000	-4.558750
7.930000	-62.464001	1055.360962	17.683750	5.394375	3.688125
-32.879002	-73.871002	1212.375000	14.065625	11.611250	10.307500
46.726002	-70.943001	1281.854004	2.423750	-30.738750	9.856875
-8.357000	-84.180000	1341.268066	8.645000	0.927500	6.426875
10.370000	-82.167000	1303.143066	11.515000	-9.375625	3.311875
-18.666000	-59.902000	1251.171021	5.473125	10.189375	0.376250
-3.416000	-46.665001	1125.450073	15.688750	16.686251	2.918125
-14.457000	-2.135000	1033.645020	7.660625	21.463751	9.594375
18.726999	-18.605000	998.630981	8.089375	11.926250	16.117500
-30.500000	-23.485001	997.716003	11.851875	15.378125	19.508125
-35.196999	-14.823000	986.369995	5.783750	6.116250	11.812500
-28.731001	-12.383000	972.218018	5.783750	-0.791875	5.267500
-27.328001	8.967000	993.751038	2.226875	-7.997500	-0.214375
-13.664001	33.306000	980.514038	1.330000	-2.861250	-2.065000
-7.503000	26.840000	1000.278015	-10.565625	-0.826875	0.971250
-23.668001	10.736000	1019.492981	-13.033125	-2.419375	2.012500
-84.180000	-83.692001	1042.978027	-6.606250	3.880625	1.295000
-44.896000	-14.945000	1033.218018	-5.744375	3.574375	-4.598125
-54.290001	-4.941000	1033.401001	-3.023125	9.804375	-3.333750
-43.675999	-18.910000	1032.546997	-0.936250	10.486875	-2.856875
-26.596001	-45.262001	1014.856995	-4.204375	6.173125	-2.730000
-67.649002	1.220000	1018.517029	-5.083750	3.080000	-13.811875
-49.837002	-17.812000	1012.843994	3.316250	3.145625	-4.978750
-41.480000	-26.596001	1001.376038	1.955625	-3.036250	-0.319375
-39.345001	-32.146999	1006.804993	1.124375	-0.035000	-0.201250
-42.456001	-27.267000	992.958008	2.957500	-5.722500	0.625625
-32.085999	-21.410999	973.742981	1.596875	-10.123750	-0.669375
-14.518001	-21.289000	1025.410034	-1.470000	-12.700625	-0.949375
-7.137000	-29.402000	1148.325073	-6.763750	-22.942499	-2.616250
-12.688000	-37.453999	1234.334961	-6.300000	-23.240000	0.476875
-12.017000	-31.110001	1415.993042	-2.366875	-22.146250	0.262500
-24.278000	-44.713001	1488.948975	-2.174375	-35.166248	-6.807500
-20.496000	-41.602001	1491.450073	0.695625	1.124375	-7.301875
17.141001	-25.620001	1378.172974	3.696875	-17.556875	-16.568125
62.341999	-47.214001	1301.374023	1.649375	17.635626	-19.376875
122.854004	-14.213000	1030.167969	20.759375	7.704375	-18.191250
100.772003	18.971001	975.817017	4.138750	-1.474375	-2.051875
99.490997	-15.555000	876.570007	-5.796875	40.989376	7.161875
83.082001	-10.187000	887.733032	-16.069374	23.415001	7.625625
50.691002	28.853001	759.572021	-11.563125	21.984375	11.830000
18.726999	-27.999001	706.867981	-11.672500	12.263125	32.283127
-15.677000	-40.625999	589.320984	-0.756875	20.321875	22.325624
-34.709000	-43.859001	544.364014	3.867500	42.345627	13.501250
-32.818001	-42.151001	603.411987	13.566875	22.531250	7.336875
-42.944000	-39.771999	613.233032	11.033750	12.048750	-1.085000
-58.560001	-27.694000	636.778992	11.270000	-3.696875	-2.581250
-63.135002	-20.434999	753.228027	-2.791250	-6.413750	-1.351875
-26.596001	-21.167000	807.762024	-1.955625	-21.236250	3.206875
-37.514999	-22.082001	885.536987	-9.896250	-5.757500	2.358125
-37.453999	-42.577999	892.002991	-6.492500	-11.431875	-4.020625
-43.798000	-9.455000	926.528992	-9.743125	-6.654375	-7.774375
-24.461000	-46.116001	889.684998	-8.264375	-5.245625	-4.445000
-3.111000	-46.360001	962.153015	7.188125	-16.069374	-12.022500
-58.987000	-11.956000	873.458984	12.298125	0.052500	-30.695000
50.996002	35.624001	853.145996	38.346874	-17.758125	-10.749375
-4.331000	20.984001	1059.143066	32.956875	-26.823126	16.843750
-1.647000	84.850998	1229.394043	15.413125	1.076250	4.921875
-5.978000	46.299000	1285.391968	-21.616875	3.403750	3.163125
-42.028999	20.984001	1396.473022	11.637500	-41.474998	-13.133750
-7.869000	87.230003	1412.760010	8.863750	21.371876	-11.895625
35.136002	98.637001	1328.823975	5.096875	-17.653126	-8.032500
-2.623000	64.355003	1310.890015	-17.955000	16.896250	4.904375
6.710000	16.165001	1222.135010	-21.039375	6.636875	0.971250
-25.742001	-19.215000	1107.394043	-14.748125	20.584375	1.102500
-16.348000	-13.176001	979.049988	-5.600000	15.115625	1.391250
-34.098999	-6.954000	973.010986	-2.450000	18.742500	4.046875
-33.428001	-16.226000	988.627014	-2.638125	11.576250	7.166250
-38.796001	-31.903000	978.622986	-2.336250	-3.666250	5.674375
-35.075001	2.196000	1019.309998	-2.493750	1.824375	3.128125
-43.249001	-22.691999	1016.199036	-7.183750	-3.618125	2.734375
-30.134001	-15.372000	996.069031	-2.069375	-3.788750	2.231250
-40.992001	4.819000	1029.130981	2.205000	-0.533750	2.143750
-36.112000	-7.564000	1019.492981	-0.791875	-1.176875	2.135000
-41.480000	-8.418000	1001.192993	-3.390625	2.257500	0.481250
-38.063999	-21.716000	1018.028992	-2.953125	0.901250	1.098125
-29.951000	-27.511000	1005.280029	-1.203125	1.684375	-0.595000
-31.110001	-34.038002	1002.108032	2.918125	2.235625	0.612500
-36.966000	-24.461000	1006.134033	1.631875	0.214375	-1.067500
-33.184002	-14.579000	1000.460999	1.868125	-0.516250	-1.675625
-36.112000	-4.758000	1007.658997	2.559375	-4.213125	-3.329375
-18.361000	-5.124000	1025.166016	-3.758125	-3.823750	-2.870000
-15.982000	-59.353001	1059.630981	-6.203750	-5.495000	-4.598125
-34.709000	-19.398001	1200.541016	18.606874	4.033750	-13.216875
30.927000	58.681999	1301.191040	3.863125	-16.769375	-0.800625
-52.154999	-127.306999	1727.885986	-79.393127	-29.579374	9.235625
-20.374001	-131.210999	1345.843018	-40.814377	2.183125	-2.463125
-53.131001	-94.062004	1389.702026	-0.516250	-12.009375	-15.181250
10.126000	-118.156998	1320.894043	14.822500	-24.801874	-22.789375
62.464001	-62.830002	1139.785034	19.538750	14.345625	-24.434376
-2.257000	-10.187000	971.486023	17.530624	30.725624	-5.547500
11.468000	23.851000	938.424011	5.075000	27.251875	2.708125
14.579000	-55.875999	831.979004	-2.625000	51.922501	9.782500
0.854000	-38.125000	768.478027	1.553125	23.401875	3.027500
-41.297001	-31.720001	676.794983	-4.427500	31.163124	8.894375
-49.593002	-15.494000	677.770996	-11.274375	14.953750	14.791875
-66.551003	-17.202000	632.630981	-4.086250	43.189999	16.104376
-75.212997	-40.809002	666.729980	8.544375	26.333124	4.165000
-101.687004	-24.156000	641.049011	9.905000	19.228125	3.482500
-67.954002	-39.589001	673.501038	21.905624	-0.188125	2.489375
-88.633003	-33.244999	675.880005	20.588751	-12.617500	2.266250
-87.291000	-20.191000	772.320984	3.902500	-15.518125	0.100625
-68.869003	-19.337000	801.966980	0.000000	-21.249374	-4.694375
-55.449001	-17.263000	841.921997	-9.117500	-16.415001	-8.071875
-61.427002	-44.408001	830.210022	-12.070625	-20.059376	-7.988750
-71.980003	-29.463001	796.294006	-11.046875	-24.399376	-6.610625
-54.961002	-58.681999	838.140015	-17.023125	-14.892500	2.953125
-70.698997	-115.534004	864.369995	19.718124	-26.556250	0.358750
5.124000	-13.237000	857.965027	37.485001	-25.493126	-3.955000
-10.004000	52.399002	1143.750000	21.800625	6.374375	2.953125
-1.830000	92.964005	1177.483032	2.738750	-53.379375	-9.878750
-18.177999	13.725000	1348.588013	14.188125	-22.159374	-10.167500
28.059999	93.147003	1338.156982	13.912500	-61.643749	-25.375000
17.080000	39.528000	1410.869019	12.740000	-10.981250	-4.593750
1.708000	149.694000	1351.211060	25.309376	15.343125	10.101875
-47.763000	90.524002	1317.478027	1.763125	39.983124	26.040001
-4.880000	67.587997	1127.707031	-22.150625	31.968124	26.389999
6.649000	32.939999	1079.456055	-31.793125	25.348749	19.350624
4.026000	20.496000	1034.316040	-23.480625	16.616249	16.104376
-32.208000	-25.437000	1040.416016	-19.713751	23.870001	9.918125
-25.742001	-9.333000	993.080017	-18.414375	2.366875	1.281875
-41.480000	-17.080000	1009.671997	-17.132500	5.691875	2.594375
-51.179001	-23.729000	1025.837036	-13.269375	2.655625	0.984375
-52.704002	-35.929001	1033.401001	-19.346251	-6.431250	-0.966875
-38.917999	-51.667000	1023.213989	-16.257500	-10.858750	-1.680000
-36.844002	-72.528999	1011.014038	-11.375000	10.911250	2.826250
-44.042000	-75.152000	1052.859985	-10.145625	1.793750	5.941250
-47.824001	-87.291000	1036.328979	-11.593750	-0.988750	2.288125
-32.757000	-91.987999	991.311035	-1.802500	0.310625	1.413125
-44.529999	-89.974998	991.616028	6.724375	2.756250	-0.415625
-32.269001	-83.936005	984.479004	11.357500	1.671250	-0.310625
-29.280001	-75.762001	994.544006	6.243125	4.484375	-1.448125
-30.805000	-78.445999	1007.476013	3.762500	-2.975000	-1.106875
-29.158001	-70.393997	1010.587036	3.014375	-0.835625	-0.756875
-32.757000	-53.131001	1008.879028	-3.272500	-2.502500	0.625625
-21.472000	-66.246002	984.723022	-4.160625	-8.911875	-0.371875
-7.869000	-73.078003	1010.221008	-0.175000	-14.293125	-1.041250
-18.788000	-83.814003	1139.968018	-2.856875	-27.405001	-3.228750
1.586000	-103.028999	1183.156006	-4.313750	-17.797501	-5.149375
4.453000	-110.043999	1226.770996	9.095625	-8.106875	-7.179375
-7.076000	-99.674004	1285.270020	19.766251	-15.006250	-6.531875
30.316999	-34.770000	1239.641968	30.323126	13.418125	-3.583125
2.623000	-56.181000	1221.098022	4.956875	-19.687500	-3.473750
35.319000	-30.195000	1172.176025	9.371250	-11.375000	-4.523750
36.904999	-50.935001	1122.521973	9.305625	-5.700625	-9.261875
