AccX[mg]	AccY[mg]	AccZ[mg]	GyrX[dps]	GyrY[dps]	GyrZ[dps]	
72.101997	-48.556000	1019.005005	0.883750	-2.235625	-3.088750
19.703001	-35.624001	992.286987	0.883750	-2.235625	0.000000
82.959999	-29.585001	975.390015	-1.561875	-43.207500	-26.324375
121.817001	-33.672001	1010.953003	-23.760626	-59.460625	-33.560623
85.400002	-80.641998	902.434021	-12.267500	32.361874	-10.084375
-16.165001	-110.898003	1073.966064	15.281875	72.511253	12.171250
-0.610000	-19.153999	966.239990	37.375626	32.029373	19.289375
88.999001	8.967000	982.466003	-42.096249	9.301250	34.580002
-38.430000	-81.984001	1006.439026	-43.238125	28.139999	59.202499
-5.124000	-79.361000	1005.890015	-7.288750	26.547501	76.947502
-23.180000	-65.636002	1008.390991	27.334999	-0.205625	72.716873
-20.862000	42.456001	1035.414062	14.923125	-57.837502	51.082500
66.673004	-50.874001	1049.932007	2.782500	-76.947502	22.504999
115.960999	-58.621002	1007.903015	1.631875	-37.988125	-3.395000
106.567001	-31.964001	1009.549988	-6.772500	7.280000	-20.028749
76.250000	-38.491001	1013.880981	-18.908751	34.076874	-31.364374
38.247002	-45.811001	1031.021973	-25.952499	47.381248	-38.451874
45.079002	-46.177002	1023.335999	42.428749	10.259375	-30.913750
11.590000	-5.063000	1016.320984	27.330626	9.038750	-21.511875
28.914000	-6.954000	1004.731018	-7.625625	3.959375	-11.055625
27.816000	-26.108000	1018.822021	-28.721874	-4.580625	2.025625
24.521999	-71.492004	1035.901978	-10.132500	-2.961875	16.174376
7.808000	-26.108000	1018.212036	16.738750	-3.351250	25.186874
10.675000	-15.250000	1012.294983	11.090625	3.215625	25.103750
-14.945000	-79.300003	1010.526001	-9.209375	6.269375	17.753750
19.580999	-46.848000	1019.981018	-13.125000	-2.918125	8.225000
86.863998	139.873001	1005.707031	8.032500	-11.755625	-5.551875
-11.102000	-141.154007	1052.859985	5.061875	7.472500	-6.895000
106.201004	-74.847000	1075.613037	4.593750	37.095627	-0.122500
205.753006	-242.231003	1043.709961	11.379375	15.496250	-1.981875
307.744995	-61.243999	963.190002	23.428125	-29.736876	-68.293747
-56.669003	142.923004	998.143005	-3.023125	15.570625	-80.066872
-133.102005	82.472000	1012.843994	-14.087500	55.759377	-29.863750
7.808000	-89.181999	-351.360016	23.244375	32.278751	20.116249
-124.623001	-35.929001	943.975037	18.025000	-54.245625	-2.113125
-167.994003	-130.479004	928.541992	-15.251250	1.338750	-21.586250
62.586002	-23.668001	1042.428955	-13.632500	-10.364375	-29.977501
67.039001	124.013000	907.375000	4.825625	-12.748750	-32.309376
-53.131001	148.779007	1219.145996	-9.896250	-6.461875	-14.245000
-40.748001	47.153000	970.388000	8.452500	50.754375	-0.008750
-91.256004	110.898003	969.900024	18.340000	47.061874	7.726250
-160.979004	-5.551000	1169.979980	4.598125	23.515625	11.449375
-37.088001	74.054001	982.221985	10.058125	41.330624	4.007500
-129.930008	116.875999	1017.663025	19.280624	-31.276875	27.199375
-64.598999	162.138000	1454.789062	60.943748	-102.357498	67.834373
297.497009	77.958000	820.937988	49.682499	-39.983124	51.244373
97.966003	227.102997	1025.714966	19.302500	17.110624	30.524376
-0.305000	157.563004	1190.171021	-18.405624	10.968125	26.932501
271.755005	234.117996	918.111023	1.124375	-0.949375	6.921250
259.677002	297.436005	850.767029	-5.236875	-14.507500	1.706250
96.684998	165.737000	1021.018005	-55.081249	38.981251	5.376875
164.516998	137.494003	900.177002	-33.140625	6.593125	-3.556875
121.572998	189.649002	815.020996	-38.294376	-27.580000	11.156250
110.715004	81.129997	893.283997	-37.712502	11.716250	21.008751
63.562000	6.527000	855.890991	-24.412500	59.950626	12.871250
-29.036001	-42.090000	1002.413025	7.516250	49.433125	3.893750
-121.634003	-113.521004	1030.656006	-7.472500	84.354378	-8.185625
-196.664001	0.915000	950.989990	-1.719375	114.589996	-11.405625
-143.777008	41.846001	1183.765991	1.001875	52.206875	-4.873750
-270.108002	-57.645000	992.958008	0.437500	-0.651875	3.049375
-251.259003	-59.170002	870.591980	7.441875	-49.691250	7.131250
-330.619995	-118.645004	965.264038	5.442500	-81.414375	-1.124375
-160.307999	-10.980000	1109.285034	25.003124	-103.293747	-27.706875
-81.313004	32.085999	1030.777954	19.809999	-86.200623	-9.353750
63.013000	116.327003	1047.248047	-9.730000	-64.566254	20.330626
-35.563000	-122.670998	1295.884033	-21.139999	-10.806250	49.743752
63.257000	-66.794998	981.367981	-43.610001	66.044998	43.194374
-29.646000	-49.288002	1035.353027	-12.162500	6.982500	22.855000
155.306000	-25.315001	1039.379028	-5.665625	22.124374	24.657499
-67.527000	-26.108000	897.432007	-14.385000	49.048126	1.876875
-82.716003	-44.652000	975.755981	29.881250	19.875626	-17.233126
54.900002	25.681000	989.176025	26.210625	-29.605625	-29.496250
51.972000	58.560001	1152.717041	43.955624	-49.354374	-18.475624
6.832000	34.952999	929.335022	-9.852500	58.576874	31.303125
-107.542999	-25.132000	937.265015	-2.541875	102.090622	-4.532500
-109.433998	36.966000	1171.749023	19.394375	13.746250	-10.101875
-164.882996	-56.973999	1153.998047	28.297501	-59.451874	-15.111250
-34.221001	119.621002	1095.987061	0.923125	-55.706875	-50.894375
-0.183000	181.658005	993.629028	-13.540625	-10.723125	-52.093124
68.502998	123.403000	1160.952026	-24.298750	7.385000	-33.976250
80.886002	-81.008003	953.125000	-23.843750	14.455000	-26.844999
43.615002	-73.871002	905.484009	-27.190624	-41.702499	-38.889374
221.552002	-78.263000	975.268005	26.394375	-59.486874	-30.502501
80.276001	-45.383999	1084.336060	-5.477500	8.067500	6.234375
67.039001	-133.529007	1122.217041	0.542500	-32.361874	6.571250
71.308998	-120.779999	915.244019	-8.806875	-57.045624	-23.196251
347.334015	-39.101002	878.827026	-9.813125	-43.041248	-37.099998
178.363998	-58.316002	1001.010010	-14.100625	37.668751	-16.730000
189.710007	-140.300003	952.210022	-8.172500	56.879375	-9.143750
-10.248000	-76.615997	1087.508057	16.970625	34.610626	9.638125
60.573002	-44.896000	985.333008	57.084999	22.806875	25.707500
128.283005	-88.145004	1109.223999	30.581249	27.746250	35.170624
-7.869000	40.382000	807.030029	24.150000	64.273125	28.853125
28.853001	111.081001	1053.104004	-38.753750	-44.524376	17.373125
23.180000	-7.869000	1071.587036	-35.319374	-28.301874	30.100000
-47.519001	81.618004	941.046997	-23.170000	-13.693750	31.819374
0.610000	175.557999	1004.914001	-33.298126	-5.490625	19.748751
-82.532997	122.305000	952.942017	-19.923750	-7.288750	8.347500
69.052002	83.509003	1056.458984	-25.055626	-11.663750	17.845625
-14.701000	-7.930000	970.205017	-8.592500	-2.835000	12.958750
107.116005	-81.923004	1185.473999	-4.598125	3.797500	11.265625
-16.469999	-129.807999	975.085022	-7.288750	14.818125	11.340000
38.979000	-146.339005	989.481018	21.966875	14.030625	2.581250
57.645000	-131.272003	929.395996	11.620000	-4.173750	10.701250
-13.481000	-153.171005	836.065979	-6.072500	-13.868750	-6.457500
21.899000	-113.887001	1043.161011	10.955000	9.655625	-5.722500
59.475002	-133.468002	984.967041	21.647499	15.946875	3.071250
-102.906998	-154.147003	1080.980957	2.073750	32.996250	7.236250
46.970001	-55.083000	1017.480042	11.493125	17.893749	12.201875
7.015000	-61.549000	1042.672974	19.591249	9.388750	14.275625
11.041000	-40.320999	1110.626953	5.547500	16.585625	6.531875
58.621002	28.975000	906.765015	0.756875	1.701875	28.070000
-138.531006	31.781000	951.600037	-13.405000	14.218750	17.228750
-5.185000	137.371994	983.564026	-3.605000	30.196251	11.808125
-62.281002	117.852005	965.264038	-7.078750	-14.748125	14.485625
-125.050003	78.995003	1083.542969	1.312500	-44.156876	-5.735625
26.474001	172.020004	1118.557007	-7.472500	-34.698124	-5.140625
28.426001	143.654999	1064.389038	-7.437500	-3.040625	0.695625
-24.583000	140.787994	973.804016	3.080000	18.978750	2.633750
21.716000	48.799999	1034.193970	-0.678125	17.959375	6.715625
-11.224000	-22.875000	1091.534058	-2.795625	14.573125	-8.666875
-149.632996	-53.741001	973.742981	12.967500	4.427500	-21.122499
-2.013000	-24.156000	1085.006958	0.376250	4.375000	-20.881874
-27.999001	-20.069000	904.691040	-12.543125	18.046875	-18.278749
-107.848000	-134.016998	1000.827026	-3.815000	-9.025625	-29.951250
23.241001	-91.744003	1059.936035	12.639375	-32.781876	-27.203751
-38.307999	-77.104004	909.449036	9.948750	-15.124375	-15.925000
-57.340000	-89.121002	981.429016	17.473749	-28.153126	-26.337500
44.225002	-32.513000	995.885986	13.601875	-52.683750	-15.338750
3.599000	-28.365000	1001.315002	11.913125	-27.654375	-7.161875
25.802999	20.069000	1047.125977	3.539375	2.638125	4.974375
5.856000	39.101002	1014.796021	-7.577500	-1.093750	8.028125
11.529000	4.636000	1031.631958	-16.139376	9.743125	5.560625
21.472000	37.088001	1035.474976	-10.880625	7.140000	6.164375
-2.989000	17.202000	1033.949951	-5.481875	3.290000	14.113750
-16.165001	24.705000	990.822998	-3.801875	16.905001	11.996250
-41.053001	-15.067000	1083.115967	1.815625	-7.196875	1.277500
-21.533001	83.997002	1003.328003	-8.001875	-4.173750	-8.951250
19.886000	34.647999	1069.756958	-12.543125	-15.960000	-12.998125
56.424999	25.559000	1062.925049	-9.686250	-7.122500	-10.390625
85.827003	-37.453999	945.988037	-16.196251	14.367500	9.581250
39.771999	-61.549000	920.916992	-13.658750	-7.490000	23.629375
9.394000	-94.793999	931.713989	-9.913750	-14.555625	23.918125
53.192001	-61.854000	929.395996	0.135625	-7.021875	16.065001
22.691999	-85.705002	962.885010	3.950625	-6.348125	7.826875
8.662000	-67.771004	982.283020	3.097500	-15.723750	-5.013750
62.403000	-52.948002	1000.827026	2.590000	-18.996250	-10.705625
38.491001	-8.540000	984.906006	5.171250	-15.636250	-13.090000
89.487000	-59.535999	1101.110962	5.350625	7.227500	-10.049375
61.305000	-57.218002	1060.424072	-4.410000	20.960625	-5.626250
48.739002	-75.396004	1038.890991	-11.908750	-4.882500	2.581250
45.872002	-71.431000	1021.384033	-8.120000	9.117500	4.086250
13.542000	-60.633999	975.145996	-6.260625	13.177500	4.641875
7.869000	-98.271004	952.148987	-3.854375	2.318750	4.226250
15.433001	-116.998001	998.570007	-7.800625	-10.364375	0.551250
32.695999	-74.054001	992.043030	-2.266250	-20.076876	-6.768125
104.249001	-75.029999	1090.863037	3.898125	-11.353125	-3.850000
75.517998	-79.300003	1074.576050	4.882500	5.153750	2.485000
49.348999	-63.074001	1024.067993	5.941250	11.322500	4.703125
53.436001	-35.685001	977.281006	10.928750	19.368126	10.272500
16.165001	-67.344002	997.411011	4.589375	13.405000	4.830000
-3.660000	-46.177002	983.197998	0.100625	-1.570625	-2.340625
22.326000	-51.789001	1019.737000	3.123750	-10.591875	-7.564375
34.038002	-42.028999	996.679016	8.592500	-5.285000	-10.158750
50.507999	-19.215000	1005.950989	9.782500	-5.241250	-7.840000
38.003002	-9.577000	1019.309998	3.893750	11.440625	2.038750
6.710000	-30.195000	986.614014	-0.805000	10.841250	2.970625
23.180000	-20.007999	1021.811035	1.929375	0.927500	4.913125
17.263000	-66.306999	1035.901978	2.725625	2.502500	8.093750
-5.063000	-41.541000	971.486023	-4.344375	8.929375	-1.010625
44.834999	-36.783001	947.635010	-5.880000	2.358125	0.188125
3.233000	-55.510002	1018.395020	-4.571875	5.127500	5.289375
-21.410999	-39.894001	982.588013	1.343125	8.601250	3.819375
237.290009	23.180000	904.507996	3.071250	19.298124	5.569375
-60.633999	-58.072002	1047.065063	-4.541250	-1.841875	4.843125
-5.551000	-27.572001	973.742981	2.839375	-17.351250	-1.400000
10.248000	-54.716999	1027.545044	6.654375	6.168750	-2.935625
-7.442000	-75.274002	996.739990	3.495625	6.076875	-4.322500
14.701000	-30.195000	1046.638062	2.804375	-0.070000	-5.114375
-15.860001	1.708000	966.117981	-0.315000	18.646250	3.036250
-23.973000	-19.153999	1040.660034	-5.661250	11.309375	3.456250
-53.802002	-35.257999	1014.979004	-9.471875	17.176250	8.299375
-73.078003	-11.529000	983.442017	1.614375	14.511875	2.668750
-58.926003	4.026000	1012.966003	1.973125	-5.149375	-0.875000
-38.857002	4.148000	1082.688965	-2.695000	-19.083750	-5.223750
12.261000	-6.405000	1064.937988	-2.953125	-1.203125	0.039375
-30.927000	-25.498001	1019.798035	-3.381875	5.429375	5.998125
-21.045000	-40.015999	968.252991	-5.442500	-6.356875	5.521250
-61.183002	-60.512001	994.299988	2.209375	1.316875	1.133125
-12.261000	-40.931000	988.505005	1.098125	-5.363750	-2.795625
-29.768000	-46.237999	994.483032	3.626875	-4.326875	-4.550000
-21.655001	-46.360001	1044.625000	3.049375	0.791875	-3.753750
-29.341000	-32.574001	1023.153015	-0.704375	0.192500	-3.618125
-30.988001	-37.453999	1028.155029	0.043750	1.855000	-1.885625
-38.003002	-36.844002	1032.546997	0.835625	2.091250	-1.098125
-29.585001	-29.463001	1011.075012	0.857500	-0.555625	-2.559375
-23.607000	-21.045000	1019.859009	0.822500	-1.382500	-2.235625
-36.478001	5.185000	992.226013	-0.625625	2.970625	-2.791250
-17.995001	-30.743999	1029.863037	-1.623125	-1.001875	-1.102500
-47.458000	-69.845001	1034.133057	-2.156875	-1.260000	2.506875
-82.959999	-198.128006	963.251038	-3.858750	-2.970625	7.013125
-43.615002	-355.386017	999.119019	1.631875	-2.489375	4.589375
-99.857002	-492.270020	919.270020	-5.600000	1.128750	24.001249
-104.554001	-643.611023	874.984009	-16.078125	-11.808125	34.790001
33.428001	-596.458008	1045.906006	-14.266875	-15.728125	47.355000
-2.989000	-451.460999	970.022034	8.395625	15.855000	68.162498
79.056000	32.818001	1056.214966	20.326250	-17.469376	58.406250
114.497002	97.294998	1094.523071	4.296250	-4.401250	55.623749
34.038002	195.382996	1003.816040	-22.531250	-9.043125	54.075001
135.968994	117.486000	1034.316040	-11.423125	-30.961876	80.010002
102.113998	-33.000999	1075.003052	9.366875	-18.650625	69.623749
42.334000	-4.148000	1092.998047	24.841249	-17.600624	46.366249
263.946991	46.909000	1097.938965	-4.554375	-3.933125	53.252499
190.503006	120.902000	1030.656006	4.060000	12.744375	44.008125
143.227997	233.447006	964.531982	4.956875	10.933125	28.485624
162.931000	294.141998	948.549988	3.329375	-13.457500	17.465000
29.158001	179.645004	1084.031006	-6.763750	-15.260000	8.605625
-31.354000	56.730000	1316.258057	-0.586250	-13.746250	6.685000
-24.217001	-31.781000	1487.911987	-8.767500	1.750000	7.721875
5.124000	-46.726002	1424.228027	0.035000	14.122500	-0.017500
-14.396000	36.050999	1373.354004	7.993125	21.551250	6.090000
-25.193001	-3.721000	1260.992065	14.494375	56.686874	7.822500
-11.102000	26.596001	1191.756958	0.647500	49.560001	14.892500
-122.122002	3.965000	1036.145996	-7.892500	44.371250	15.168125
-22.875000	-23.729000	1089.032959	-8.920625	38.749374	16.677500
-16.226000	-19.032000	1046.454956	22.356251	52.110626	14.634375
-63.074001	-34.526001	1057.130005	10.618125	48.120625	6.610625
-126.636002	39.161999	1142.713013	6.260625	57.290627	5.416250
-25.193001	-35.319000	1140.822021	5.197500	69.938751	8.767500
-75.152000	-33.428001	993.629028	2.165625	63.275623	15.763125
-139.445999	-85.827003	851.559998	1.557500	86.970627	9.485000
-122.610001	18.422001	569.374023	-10.298750	80.989998	10.486875
-282.795990	47.945999	464.027008	-12.521250	68.748749	-2.467500
-396.683014	122.487999	377.407013	-13.365625	59.338123	-14.822500
-446.886017	129.990997	390.765991	-14.975625	27.409374	-11.703125
-380.029999	116.448997	704.976990	-17.202499	-7.293125	-6.772500
-502.884003	250.283005	772.931030	14.538125	-10.342500	-19.486250
-428.830017	206.240997	890.905029	35.752499	-29.172501	-31.543751
-328.119019	275.170990	968.192017	30.576876	-32.401249	-36.623123
-363.804016	235.154999	1027.849976	51.909374	-31.066875	-35.258125
-171.837006	160.856995	1014.552002	59.167500	-34.120625	-41.033127
-344.894012	173.727997	971.669006	60.204376	-24.508751	-41.575626
-129.320007	80.398003	985.272034	42.323750	-19.223749	-45.338123
-361.851990	29.646000	954.406006	19.350624	-27.203751	-49.319374
-320.433014	-60.084999	1046.088989	33.372501	-35.945000	-60.689999
-407.662994	-94.428001	1103.978027	35.183750	-39.440624	-58.380001
-219.600006	-198.677002	1121.667969	34.085625	-37.738750	-58.366875
-435.417999	-153.110001	1032.669067	19.836250	-18.554375	-52.241875
-265.106018	-251.076004	1100.256958	19.250000	-8.465625	-45.377499
-387.716003	-191.173996	926.712036	15.404375	-9.800000	-32.908749
-356.606018	-146.888000	844.606018	11.790625	-1.666875	-44.528751
-243.817001	-92.659004	802.820984	-7.910000	-6.663125	-25.974375
-243.268005	-63.074001	631.471985	-19.044374	0.931875	-16.979376
-141.337006	-126.514000	499.162994	-33.648125	11.825625	-17.701250
-214.781006	-159.393005	587.491028	-28.393749	-19.604376	-14.201250
-219.356003	-122.915001	616.221985	-33.162498	-32.143124	-41.155624
-48.556000	-52.764999	753.350037	-18.191250	-67.869377	-47.271873
-29.097000	-156.831009	907.192017	-15.596875	-50.478748	-0.437500
-30.743999	-244.182999	1215.242065	-9.415000	-48.313126	17.911249
-39.101002	-114.862999	1015.772034	-23.852501	-42.349998	11.226250
-35.196999	-70.393997	1211.399048	-38.526249	-51.988125	38.919998
-126.270004	-111.446999	1205.299072	-5.079375	-35.752499	30.620625
-141.276001	-174.582001	1279.657959	-15.408750	-34.208126	10.478125
20.191000	-113.704002	1396.107056	-10.631250	-84.415627	3.675000
-140.178009	-96.075005	1455.032959	1.470000	-23.388750	-6.825000
67.649002	-103.516998	1447.347046	-2.463125	-44.695000	-13.658750
-31.171000	-117.730003	1332.545044	2.887500	2.695000	-1.688750
41.602001	-170.494995	1126.303955	-5.788125	-0.971250	-2.642500
56.730000	-229.787003	968.070007	-4.764375	12.363750	4.983125
-31.171000	-251.869003	902.556030	6.094375	12.368125	-5.070625
92.110001	-228.688995	948.062012	16.563749	5.565000	-17.281250
15.616000	-288.895996	1026.141968	18.458124	43.719376	-13.046250
-12.261000	-281.759003	987.528992	18.720625	45.075626	-21.665001
86.315002	-318.359009	937.447998	9.086875	7.052500	25.838751
-39.406002	-351.847992	953.552002	20.881874	16.633751	42.078751
15.677000	-279.868011	867.603027	18.952499	-1.885625	51.686249
-40.320999	-291.274994	1063.291016	4.869375	-13.676250	50.531250
-44.529999	-156.281998	942.755005	0.870625	0.126875	31.635626
188.001999	-112.606003	1222.562012	-3.508750	-5.845000	27.422501
111.996002	-113.094002	1228.357056	-8.220625	-9.861250	41.921249
130.113007	-16.165001	1197.430054	-10.084375	25.414375	34.378750
116.388000	46.360001	1092.327026	-11.130000	16.725624	32.038124
72.223999	337.817993	1067.682983	-8.128750	14.406875	20.374374
-79.117004	360.815002	814.898987	-8.688750	23.086876	38.049374
-104.737000	239.669006	967.460022	-6.794375	-6.208125	35.328125
-78.445999	195.444000	944.341003	1.640625	-1.758750	18.291876
-69.845001	179.339996	983.137024	12.464375	-8.540000	17.955000
-90.402000	36.112000	1182.180054	9.323125	-0.866250	20.951876
-212.402008	17.202000	1144.786987	-1.723750	11.029375	14.161875
-178.912994	-71.675003	1336.204956	0.603750	2.366875	8.128750
-246.745010	-63.623001	1447.103027	-3.701250	5.967500	19.276251
-236.313995	-61.061001	1334.192017	-4.550000	27.251875	19.788124
-158.966003	-77.104004	1377.989990	8.185625	33.175625	26.967501
-121.084999	-46.177002	1339.499023	9.795625	68.368126	35.367500
-168.238007	-61.976002	1198.527954	3.211250	69.680626	39.571877
-152.622009	-77.835999	1162.660034	0.507500	84.783127	16.568125
-145.485001	-46.116001	984.113037	-6.790000	70.122498	12.053125
-135.542007	30.988001	914.817017	-8.216250	71.185623	15.351875
-155.550003	33.793999	626.286987	-6.365625	91.013123	27.168751
-261.019012	-30.378000	646.661011	-10.128125	94.810623	20.969376
-273.218994	94.793999	467.199005	-14.262500	63.665001	11.414375
-440.968994	87.291000	328.302002	-6.107500	45.088749	5.271875
-406.076996	154.878998	425.718994	-3.031875	40.661251	4.830000
-475.860992	125.477005	563.762024	-6.457500	2.340625	4.256875
-503.433014	193.919006	604.815002	-3.526250	-15.658125	-4.248125
-505.324005	207.400009	705.830994	-2.038750	-24.088751	-8.719375
-511.851013	236.313995	798.734009	6.203750	-21.070000	-6.969375
-477.569000	234.850006	831.064026	10.828125	-32.567501	-11.440625
-490.378998	165.492996	958.981018	9.034375	-48.488125	-16.480625
-433.588013	202.947006	961.665039	16.463125	-50.299374	-28.525000
-485.377014	138.104004	1050.907959	33.420624	-57.859375	-43.150623
-279.684998	144.020996	1110.810059	49.796249	-30.681875	-44.760624
-358.558014	-5.917000	1078.479980	39.803749	-13.041875	-38.845627
-240.645004	23.546000	917.744995	48.216873	-20.632500	-59.040627
