AccX[mg]	AccY[mg]	AccZ[mg]	GyrX[dps]	GyrY[dps]	GyrZ[dps]	
133.589996	-77.530998	1035.353027	0.883750	-2.226875	-3.088750
27.450001	-41.785000	977.647034	0.883750	-2.226875	0.000000
-35.868000	-16.348000	966.423035	7.096250	28.844376	57.391251
-2.806000	25.498001	1013.088013	34.803123	16.751875	62.028751
-83.447998	-6.588000	1046.515991	-0.070000	-5.446875	41.352501
-43.737000	91.072998	975.085022	-5.442500	-30.279375	25.112499
11.895000	52.033001	987.468018	33.958752	-80.893753	3.583125
74.847000	102.601997	1364.692017	-0.175000	18.134375	-28.857500
50.935001	50.874001	972.950012	-6.041875	10.325000	-36.395626
58.132999	47.702000	1032.364014	-3.272500	-5.993750	-37.939999
50.935001	-13.664001	1025.104980	-7.214375	2.423750	-30.126249
27.877001	55.570999	976.000000	-1.820000	-2.139375	-25.672501
20.434999	22.204000	1040.477051	-1.509375	-5.005000	-22.758751
22.936001	-11.102000	994.056030	-3.014375	-1.942500	-15.596875
56.669003	69.723000	993.690002	-1.785000	-1.566250	-16.205000
48.983002	90.097000	1000.705017	-1.933750	-0.424375	-17.955000
44.164001	31.232000	1017.053040	-0.035000	-1.203125	-3.403750
25.375999	-43.675999	964.715027	1.872500	0.420000	13.111875
53.192001	74.907997	995.276001	1.347500	2.200625	21.380625
87.901001	57.827999	1040.660034	1.828750	2.375625	31.902500
45.811001	22.448000	1036.511963	0.424375	0.835625	15.780625
21.533001	172.874008	1175.469971	-6.641250	4.681250	7.590625
34.526001	61.366001	1285.758057	-59.644375	18.383751	71.973122
112.849998	-35.868000	933.726990	-4.528125	6.116250	70.629997
29.707001	174.033005	948.549988	34.785625	-1.618750	54.503750
-44.957001	-34.587002	984.845032	20.881874	37.651249	25.191250
71.918999	53.741001	1009.733032	-44.117500	2.314375	-17.093124
112.056999	-88.328003	968.497009	-56.035000	3.342500	-29.693125
-101.565002	-116.327003	1478.274048	-9.310000	27.667500	6.247500
145.423996	-277.733002	1216.828003	-4.095000	103.630623	24.430000
-193.003998	-20.801001	900.177002	18.414375	48.055000	22.588125
-132.003998	100.772003	836.065979	29.938126	-35.419998	3.399375
-301.705994	108.519005	1055.056030	18.703125	-82.779373	-29.793751
-16.775000	-52.399002	971.424988	-0.266875	58.222500	-27.842501
-180.011002	107.787003	1241.289062	-3.386250	18.458124	-17.110624
57.706001	9.028000	920.856018	-12.884375	-14.914375	-94.889374
-709.613037	87.840004	1196.453979	4.515000	-42.341251	-38.136875
-110.715004	-13.359000	651.236023	-0.533750	44.900623	-8.710625
-182.572998	-71.918999	945.622009	-13.680625	2.266250	0.695625
21.899000	-63.500999	942.572021	-6.566875	-47.810001	-0.503125
-49.715000	-73.261002	1228.967041	-1.295000	-60.698750	0.306250
433.893005	-302.498993	1998.604004	-14.914375	-21.840000	-19.547501
179.766998	116.144005	848.815002	11.353125	-8.238125	13.846875
-61.792999	-135.542007	917.135010	7.210000	-24.158751	14.490000
-121.939003	116.327003	855.647034	-15.225000	-18.156250	-10.093125
158.844009	-75.457001	1126.364990	-4.580625	-30.572500	9.502500
228.567001	60.268002	1088.789062	-18.475624	-39.401249	22.023750
248.209000	-39.101002	914.877991	-19.809999	-21.490000	41.221249
392.046997	-159.880997	1098.000000	-12.136250	-0.831250	62.164375
68.747002	-3.904000	1061.765991	-32.357498	44.021252	52.779999
134.626999	-73.749001	934.764038	-19.897499	34.221249	52.097500
17.141001	-116.327003	990.579041	12.118750	33.560623	64.688751
62.220001	-101.138000	891.027039	26.547501	34.426876	50.675625
18.483000	-141.093002	985.515991	11.011875	18.274376	28.367500
14.823000	-43.310001	1046.394043	80.600624	-13.536250	61.468750
176.839005	-69.723000	911.523010	38.508751	-33.376877	38.171875
24.034000	-47.031002	1289.479004	35.818127	-61.031250	21.039375
158.112000	-34.770000	968.497009	66.364372	42.595001	65.756248
80.520004	-72.406998	946.536987	24.972500	43.636250	28.796249
-13.420000	127.489998	1016.687012	10.963750	11.029375	-17.268126
39.345001	65.514000	1094.828003	23.764999	40.827499	6.995625
-28.121000	89.853004	847.656006	10.714375	56.752499	4.550000
-89.792000	121.877998	1033.828003	-10.237500	12.197500	9.883125
-27.999001	100.162003	938.057983	3.876250	-5.280625	10.508750
-14.884000	226.432007	1045.052002	0.389375	-3.036250	3.587500
-11.407001	149.328003	958.859009	-2.021250	-1.820000	12.582500
-77.714005	-2.135000	1040.598999	-10.718750	3.666250	16.594376
-25.559000	95.343002	1007.231995	-8.168125	6.833750	-2.870000
-9.394000	45.139999	952.270996	26.893126	-5.355000	-12.582500
-22.570000	74.664001	1013.575989	26.831875	-12.595625	-18.611250
30.561001	50.935001	1026.508057	7.498750	-6.466250	-26.626249
16.714001	60.207001	918.294006	-21.936251	-22.098125	-16.922501
-16.592001	18.483000	951.843994	-43.461250	-33.779373	-27.155624
-7.137000	41.418999	1007.109985	-27.868750	28.603750	-18.606874
-66.794998	86.375999	1160.098022	-13.610625	49.805000	-23.515625
-23.302000	69.784004	1140.089966	4.068750	70.463753	-15.710625
-108.763000	105.347000	1123.131958	12.289375	30.834999	-17.478125
-1.220000	-68.564003	1162.354980	10.605000	12.302500	-20.514376
-21.594000	-104.554001	993.934021	23.082500	-2.712500	-35.262501
-15.921000	2.684000	883.280029	29.701876	-21.481251	-37.743126
30.256001	-51.056999	827.587036	15.220625	14.126875	-10.303125
-100.223000	-49.776001	875.228027	-7.966875	-5.306875	-4.729375
-147.742004	24.095001	923.845032	-4.755625	-29.146250	-15.141875
-19.825001	15.921000	1001.376038	-3.898125	-19.446875	-19.298124
12.810000	-17.934000	1101.598999	-9.445625	39.038124	-12.486250
-33.793999	-4.514000	1078.541016	-14.091875	38.228748	-10.963750
-48.678001	29.341000	1060.180054	-14.494375	9.988125	-7.901250
-89.609001	15.616000	962.824036	-18.353125	-1.295000	-2.419375
-106.627998	-0.976000	1015.833008	-9.117500	17.552500	0.065625
-158.477997	34.098999	993.140991	1.032500	15.986250	-0.258125
-172.264008	6.893000	1003.572021	4.484375	-3.815000	-4.248125
-186.294006	36.966000	1007.658997	14.805000	-14.035000	-18.646250
-50.569000	97.599998	1065.487061	9.568125	-26.455626	-11.760000
-100.894005	69.112999	1037.182983	2.791250	-21.529375	-3.158750
-81.434998	85.155998	1018.333984	-6.028750	-17.683750	-2.218125
-40.504002	63.013000	1045.906006	-14.971250	-10.150000	4.388125
-80.825005	3.538000	1016.138000	-16.865625	-6.930000	9.786875
-98.454002	-7.747000	1002.351990	-11.326875	-10.535000	5.901875
-42.395000	-70.393997	966.971985	-10.661875	2.126250	-2.607500
-111.081001	-6.954000	1004.242981	-3.478125	4.103750	-12.534375
5.185000	-25.375999	940.497986	-5.123125	20.995625	-17.219999
-88.328003	39.711002	985.150024	9.975000	-18.248125	-16.003750
61.487999	-46.542999	1036.695068	-2.839375	-22.986250	-16.318750
-149.022995	22.997000	1108.431030	37.209373	45.373123	-15.229375
-216.977005	48.129002	910.546997	21.030624	45.005627	-3.880625
-102.175003	39.466999	975.023987	-8.662500	10.456250	2.165625
-100.284004	-31.781000	986.858032	-5.871250	-6.453125	-1.487500
-238.998001	18.726999	969.046021	-3.583125	-63.857498	36.850624
86.253998	30.378000	1060.667969	0.293125	-100.515625	42.376251
112.849998	38.491001	926.163025	-1.531250	-96.363747	23.813126
172.507996	26.901001	1013.088013	-8.675625	-62.190624	21.700001
148.108002	14.701000	997.716003	-2.743125	-1.483125	26.608749
157.197006	-52.399002	1049.626953	-3.990000	6.072500	29.373751
262.787994	21.960001	1132.098999	4.480000	-19.048750	28.113750
221.857010	-83.631004	1128.134033	-10.723125	-7.358750	17.749374
197.822998	-41.358002	1079.578003	-15.566250	17.058125	4.195625
206.363007	-30.500000	1016.015991	-3.508750	25.033751	1.242500
179.156998	-4.270000	1044.320068	10.990000	38.110626	-0.721875
152.682999	6.588000	986.674988	-0.918750	40.210625	3.718750
120.169998	-25.864000	1036.084961	-14.490000	34.755001	5.639375
41.968002	-58.987000	1047.431030	-11.803750	52.941875	6.160000
-5.978000	-1.342000	1045.784058	6.873125	26.823126	3.399375
52.948002	-19.153999	1041.514038	10.167500	35.568748	16.283751
30.195000	-40.443001	1037.609985	2.922500	40.923752	20.483749
-20.252001	26.535000	900.116028	7.573125	32.873749	26.473125
-71.918999	-31.537001	933.726990	17.215626	9.690625	24.360001
-66.429001	28.548000	932.324036	19.744375	10.587500	13.619375
-109.128998	59.292000	932.324036	19.009375	8.583750	10.460625
-90.097000	6.527000	1053.225952	14.621250	4.475625	9.708125
-94.183998	69.662003	981.184998	1.461250	4.313750	-5.875625
-62.464001	44.713001	1032.181030	-0.091875	0.923125	2.480625
-113.704002	36.295002	979.355042	1.439375	-11.462500	2.642500
-107.055000	27.023001	1006.866028	2.226875	-14.595000	-3.500000
-47.702000	37.942001	1024.556030	-5.775000	-12.302500	-5.691875
-53.862999	36.844002	1085.312012	3.753750	-35.778751	-13.120625
-40.015999	35.624001	1090.984985	0.358750	-29.023750	-8.920625
-2.989000	52.216000	964.531982	-9.843750	-16.620625	-3.250625
-19.764000	80.886002	992.226013	-6.641250	-19.346251	-1.378125
-5.124000	71.308998	1023.458008	-7.170625	5.188750	2.353750
-71.796997	-23.973000	979.781982	-3.635625	4.523750	-1.176875
0.732000	32.513000	978.806030	0.826875	-9.371250	-5.258750
-26.779001	0.000000	998.997009	5.661250	-5.350625	-2.165625
-38.491001	-4.758000	1051.091064	10.815000	-5.061875	-18.003124
-27.694000	94.488998	1077.504028	15.596875	-6.330625	-22.535625
37.758999	62.464001	937.692017	2.362500	-2.296875	-14.691250
-9.516000	25.193001	1044.320068	-5.258750	-2.590000	-16.152500
17.323999	37.332001	1042.124023	-4.799375	-14.735000	-10.696875
-1.220000	18.056000	1024.800049	6.098750	-7.411250	-9.878750
33.062000	-25.986000	1027.849976	-0.905625	-4.353125	-2.528750
19.520000	10.675000	1032.669067	-0.280000	8.736875	-9.638125
15.372000	36.783001	971.729980	2.721250	3.163125	-13.671875
23.485001	21.106001	1017.846008	6.418125	-4.620000	-18.265625
-2.013000	132.431000	1024.006958	1.159375	0.616875	-7.437500
28.670000	34.160000	977.463989	2.196250	21.078751	-1.955625
13.664001	35.014000	1057.922974	5.053125	14.665000	-3.924375
-16.836000	92.354004	1030.961060	3.635625	3.727500	1.185625
-11.163000	63.867001	986.796997	0.971250	8.365000	0.131250
-35.929001	54.229000	997.166992	-6.208125	3.185000	-3.031875
14.213000	109.800003	1027.972046	-6.409375	-33.490623	-7.971250
116.937004	70.455002	1011.380005	-2.708125	-32.458126	6.120625
43.615002	13.237000	986.065002	7.708750	-12.551875	15.308125
83.264999	50.081001	989.968994	10.281250	-5.652500	19.573750
100.405998	27.755001	1002.108032	1.496250	-6.820625	22.106874
90.097000	50.447002	1028.459961	-6.689375	-13.216875	23.992500
82.289001	38.368999	991.067017	0.848750	-29.260000	22.211876
101.808998	57.522999	996.557007	11.536875	-39.668125	14.398125
118.340004	57.096001	1014.552002	5.740000	-13.877500	5.096875
144.875000	102.113998	994.117004	0.301875	1.207500	-6.641250
171.897995	50.325001	1032.181030	-5.849375	2.231250	-5.621875
128.893005	89.731003	1034.864990	-9.401875	-6.356875	-6.580000
184.158997	90.402000	990.822998	-2.104375	-1.592500	-1.981875
144.630997	108.397003	1047.796997	-8.378125	8.347500	7.415625
143.593994	68.502998	1038.402954	-11.116875	4.707500	5.302500
131.943008	37.088001	1013.270996	-9.638125	-2.353750	2.699375
150.731003	33.428001	1005.218994	-4.541250	-10.762500	-2.266250
190.869003	42.882999	991.981995	4.243750	-8.811250	-5.928125
158.356003	54.411999	1005.280029	-0.708750	-0.446250	-1.448125
176.229004	41.785000	1009.001038	-4.278750	14.743750	-1.898750
134.261002	74.298004	1024.921997	-5.595625	21.139999	-4.554375
112.544998	46.055000	1000.949036	-1.955625	6.807500	-3.937500
148.046997	30.134001	1031.265991	-1.102500	2.651250	-8.360625
141.947006	39.955002	1002.108032	-4.466875	3.920000	-8.531250
139.690002	26.108000	1026.447021	-6.125000	2.515625	-7.511875
131.210999	-2.379000	1042.245972	-6.615000	2.108750	-8.316875
119.987000	56.608002	1010.526001	-4.423125	1.649375	-8.050000
114.252998	-22.814001	943.304016	-6.908125	18.090626	-3.500000
79.238998	-46.116001	977.220032	-2.467500	-0.205625	-6.225625
88.511002	-63.074001	942.937988	-2.016875	-3.863125	-6.216875
106.689003	-34.282001	988.809998	2.034375	-2.454375	-4.585000
99.735001	-56.913002	992.897034	2.572500	10.596250	-1.837500
79.117004	-33.000999	965.325012	5.245625	5.013750	-1.701875
59.048000	-9.211000	1009.428040	7.332500	-2.765000	-0.643125
113.887001	-18.239000	1031.204956	2.191875	-7.783125	-1.645000
93.573997	13.054000	1025.898071	3.176250	-2.428125	-6.781250
104.676003	39.528000	1023.945984	0.039375	4.033750	-6.151250
106.689003	28.487000	1020.103027	-1.474375	-2.143750	-3.438750
98.392998	31.293001	1015.528015	-0.070000	7.245000	2.712500
78.202003	0.610000	995.642029	2.603125	3.465000	4.392500
59.170002	-71.431000	998.509033	1.176875	4.519375	2.708125
55.875999	-72.956001	1036.695068	0.415625	5.101250	2.559375
38.063999	-136.152008	990.273987	-1.671250	-3.255000	4.322500
39.894001	-159.149002	943.914001	-2.541875	-7.249375	4.379375
54.778000	25.010000	979.233032	6.615000	-5.661250	-1.382500
147.986008	97.356003	956.906982	16.283751	-16.747499	-1.505000
198.677002	194.651001	990.030029	24.889376	-8.036875	-4.169375
125.172005	22.326000	1029.192017	0.148750	9.830625	12.950000
45.262001	-152.012009	1029.436035	-3.543750	-1.391250	19.621876
42.212002	-331.412994	996.374023	3.780000	-11.532500	23.283751
44.285999	-254.003998	1063.901001	17.364374	-15.605625	28.109375
117.973999	-327.752991	1078.114014	11.326875	9.095625	45.775623
99.064003	-269.985992	1008.390991	13.711250	30.537500	45.176250
111.508003	-120.474998	1024.312012	16.493750	35.507500	50.579376
238.570999	-11.712000	1093.425049	10.889375	36.102501	53.501877
54.046001	126.270004	1155.218018	20.623751	80.946251	54.263126
137.494003	240.096008	1114.286987	-4.873750	-3.898125	47.573750
97.051003	189.953995	992.592041	-0.704375	-19.166876	48.908127
192.272003	267.424011	833.015991	-6.006875	-61.722500	32.970001
168.298996	355.080994	1033.218018	-2.388750	-62.251877	28.975624
249.551010	409.981018	952.454041	8.964375	-31.526251	14.380625
158.600006	506.117004	938.179993	-0.301875	-27.588751	22.631874
223.565002	275.720001	1059.082031	-9.813125	-30.441250	23.581249
189.587997	420.839020	1057.495972	1.675625	-34.024376	-0.437500
132.309006	347.639008	1184.437012	3.823750	10.605000	3.097500
134.322006	265.716003	1172.114990	-1.929375	-6.986875	4.589375
168.787003	206.423996	1232.505005	-3.128125	-1.806875	-6.133750
163.723999	121.695000	1125.937988	0.945000	3.202500	-10.438750
122.915001	24.034000	1299.727051	2.896250	32.532501	-9.218125
171.287994	70.272003	1352.675049	3.106250	41.947498	-12.757500
166.529999	75.334999	1392.935059	12.853750	24.836876	0.861875
161.650009	-0.610000	1398.546997	2.699375	86.008125	2.568125
191.417999	176.106995	1152.900024	8.575000	56.993126	-3.793125
142.740005	137.555008	1132.648071	0.568750	40.385624	0.778750
151.585007	150.669998	879.742004	-6.024375	95.506248	3.819375
-27.816000	97.356003	859.551025	-24.010000	73.955002	24.110624
-22.753000	-53.131001	673.195984	-31.010000	11.519375	16.957500
-35.868000	4.758000	666.913025	-21.840000	50.929375	-5.486250
-202.824997	68.685997	581.268982	-3.823750	47.630627	-21.354376
-287.493011	142.984009	510.020996	10.819375	19.389999	-23.695000
-273.645996	158.112000	575.169006	3.311875	21.533751	-14.061250
-309.636017	209.413010	587.918030	-3.101875	3.338125	-5.740000
-276.330017	210.694000	775.187988	-14.813750	-25.436251	-2.305625
-283.467010	314.149994	940.315002	-14.800625	-7.586250	-16.257500
-276.513000	373.442017	1012.966003	9.878750	-39.738125	-37.415001
-187.757996	368.440002	906.216003	12.836250	-41.085625	-52.211250
-93.330002	352.946014	979.781982	14.700000	7.581875	-53.322498
-136.335007	306.951996	834.053040	7.520625	-4.055625	-58.178749
-61.854000	217.343002	948.244995	30.200624	7.428750	-57.518124
-171.287994	116.205002	1076.833008	13.505625	-21.231874	-62.334999
61.610001	142.069000	1081.224976	18.151875	-58.471874	-67.195625
50.935001	-61.243999	1121.240967	18.484375	-40.726875	-65.817497
-4.575000	-77.714005	1103.734009	-1.645000	-29.006250	-62.479374
60.084999	-181.597000	1262.760986	8.102500	-7.280000	-46.396873
-26.047001	-337.269012	1111.847046	0.686875	8.277500	-20.571251
-94.976997	-329.583008	1004.426025	-6.667500	11.239375	-24.215626
-46.726002	-266.447998	898.530029	-20.330626	14.468125	-27.295626
-186.416000	-167.567001	813.801025	-25.361876	17.526251	-18.217501
-64.538002	-177.083008	656.116028	-33.547501	12.573750	-16.808750
-116.265999	-109.983002	695.338989	-20.645624	15.268750	-6.457500
-144.326004	-129.686005	666.608032	-2.926875	23.275000	-4.659375
-95.343002	-95.343002	453.901001	0.568750	12.197500	-15.662500
-132.675003	-30.195000	665.997986	7.341250	6.068125	-12.967500
-16.165001	138.470001	794.463989	-16.091249	-62.588749	-6.698125
-47.458000	-5.490000	799.283020	0.896875	-26.481874	-3.613750
-41.663002	-115.900002	1167.052002	-9.786875	-12.565000	29.146250
33.672001	-40.138000	913.963013	-0.835625	-110.840622	3.565625
211.852997	-8.784000	1116.056030	6.825000	-91.035004	9.756250
121.817001	6.344000	1362.984009	6.015625	-36.172501	-0.175000
72.468002	-1.281000	1243.851074	12.464375	-47.236874	-2.541875
61.305000	110.471001	1575.081055	37.769375	-11.169375	-3.653125
32.574001	-7.869000	1631.567017	34.523125	13.571250	11.480000
-11.407001	46.786999	1467.598999	18.046875	15.111250	13.531875
84.240997	11.529000	1124.352051	-25.598125	-25.913124	3.403750
57.035000	-64.903999	1046.271973	-30.874374	-15.929375	-4.401250
112.423004	-97.478004	1013.820007	-15.653750	-6.282500	-7.056875
90.707001	-207.400009	961.543030	3.097500	-16.555000	0.503125
144.630997	-251.503006	841.494995	34.085625	-6.251875	4.309375
132.796997	-247.233002	891.148987	45.456249	-2.056250	8.417500
168.177002	-249.490005	1022.543030	32.830002	-22.019375	14.691250
245.708008	-210.876999	1109.651001	19.687500	-5.521250	24.381874
167.628006	-125.843002	1142.530029	4.427500	-5.140625	37.891876
188.307007	-109.068001	1170.895020	-12.578125	34.321877	57.111252
151.097000	-142.862000	1164.307007	-15.535625	17.180626	60.392502
332.023010	-83.447998	1112.213013	-19.600000	17.250626	52.443127
260.165009	61.671001	1058.655029	-13.037500	16.913750	41.575626
248.087006	-5.917000	1069.696045	-17.233126	25.077499	32.742500
260.835999	288.652008	915.000000	-18.129999	21.013124	24.010000
150.669998	219.417007	874.434998	-28.118126	17.626875	36.610001
168.542999	378.748993	958.371033	-19.092501	-21.306250	28.765625
79.238998	419.863007	882.548035	3.233125	-15.106875	28.695625
85.339005	303.109009	958.249023	11.668125	-1.986250	15.636250
52.704002	206.302002	1116.360962	15.281875	8.168125	15.785000
65.148003	104.126999	1156.987061	28.708750	-16.721251	11.913125
111.386002	36.417000	1357.859985	34.278126	-2.760625	8.728125
105.103004	54.351002	1402.145996	-1.430625	-30.288124	6.584375
96.806999	-20.069000	1449.604004	2.848125	-42.135624	10.933125
57.278999	-29.463001	1480.104004	11.160625	-3.876250	5.963125
247.354996	90.767998	1359.263062	31.176250	-23.078125	-1.561875
270.169006	67.404999	1332.178955	16.065001	-0.415625	11.939375
341.661011	69.174004	1157.291992	-3.276875	47.306873	22.500626
229.665009	59.902000	1025.837036	-6.510000	80.928749	27.737499
143.533005	13.786000	938.241028	-15.907500	104.278122	22.601250
129.930008	84.362999	999.057983	-22.872499	88.462502	29.378124
112.728004	-43.798000	822.218994	-23.664375	104.566872	30.126249
-6.161000	-57.157001	782.080994	-24.670626	72.139374	16.069374
-89.364998	-3.599000	680.210999	-35.525002	57.640625	13.199375
-196.908005	-51.118000	550.647034	-15.850625	31.749374	-1.172500
-242.414001	-28.975000	505.933990	-2.458750	41.698124	-14.275625
-290.847992	106.627998	561.138977	-4.226250	30.638124	-12.840625
-334.950989	133.651001	654.713013	0.765625	18.475624	-6.724375
-271.205994	165.065994	724.497009	2.848125	3.373125	-10.128125
-321.104004	170.373001	942.450012	0.126875	1.386875	-26.276251
-188.673004	277.671997	881.083984	-1.863750	-37.323124	-51.493752
-268.522003	181.658005	1123.742065	0.468125	-34.011250	-65.695000
-217.709000	236.863007	1138.015991	17.163124	-20.973749	-62.313126
-90.707001	4.758000	1113.921021	17.924376	-32.125626	-52.578751
-39.466999	2.928000	1136.613037	11.742500	4.270000	-58.524376
