A_X[mg]	A_Y[mg]	A_Z[mg]	G_X[dps]	G_Y[dps]	G_Z[dps]	
20.496000	-62.464001	1002.718018	0.853125	-0.192500	-0.940625
-120.658005	-49.348999	987.223999	0.708750	-0.800625	-1.295000
-101.931000	-58.499001	981.429016	-1.610000	-1.535625	-1.045625
-135.419998	-53.985001	984.723022	-1.999375	-4.160625	0.004375
-131.089005	-46.421001	1018.028992	0.993125	-3.395000	-1.745625
-151.035995	-78.812004	1013.575989	-1.898750	-2.515625	-1.820000
-225.029007	-65.270004	1023.397034	-1.898750	-2.515625	-0.455000
-225.029007	-65.270004	1024.921997	8.850625	-4.309375	-0.455000
-268.095001	-70.150002	1024.921997	20.956249	4.410000	-4.313750
-316.101990	-57.950001	1043.770996	14.354375	6.711250	-4.882500
-361.608002	-85.827003	1034.255005	-0.183750	0.301875	-4.344375
-392.473999	-97.783005	1043.039062	-9.686250	-19.560625	1.986250
-269.864014	-77.042999	1006.317017	1.203125	-1.631875	0.258125
-253.638000	-7.747000	938.119019	7.984375	-5.394375	-0.056875
-29.829000	-56.486000	1022.543030	5.289375	-17.355625	-3.465000
-99.979004	-11.224000	935.069031	26.459999	-4.904375	-1.203125
4.270000	47.214001	1060.302002	19.070625	-12.954375	1.920625
66.856003	10.309000	990.945007	9.205000	-21.608126	6.422500
8.723001	30.073000	1019.309998	-3.631250	-9.585625	6.663125
35.624001	-1.342000	866.749023	-9.555000	4.073125	3.027500
0.854000	12.078000	938.729004	2.314375	3.443125	9.638125
47.458000	1.159000	1056.824951	7.214375	-30.555000	-4.943750
180.011002	-38.491001	910.303040	16.703751	-22.929375	-12.477500
75.822998	119.499001	974.718994	18.458124	2.471875	-18.007500
288.895996	105.042000	994.117004	0.428750	-25.939375	-21.892500
410.041992	10.004000	946.231995	-18.615625	-24.412500	-11.309375
386.557007	60.329002	1085.433960	-29.592501	10.618125	-7.669375
247.904007	38.247002	1055.666016	-40.442501	4.151875	8.846250
173.240005	-45.445000	1009.794006	-41.391876	18.830000	15.535625
293.044006	-86.681000	1017.663025	-25.707500	-10.220000	19.963125
5.917000	-77.042999	977.158997	-11.318125	-2.073750	14.721875
198.311005	-9.333000	1034.437988	0.371875	7.857500	2.301250
-85.034004	-128.893005	847.900024	9.493750	-11.515000	8.789375
45.567001	-16.531000	1004.914001	25.226250	26.468750	-10.521875
234.667007	-51.118000	1025.348999	12.845000	11.392500	0.665000
-42.212002	-60.573002	865.346008	-27.593124	-21.109375	7.140000
231.800003	-64.903999	946.536987	-37.559376	-27.418125	3.815000
-124.806000	-218.867996	869.616028	-14.113750	-66.561249	14.879375
30.866001	-63.318001	1211.582031	9.712500	17.123751	4.025000
-29.889999	-40.564999	991.005981	25.725000	13.698125	8.684375
-82.289001	-158.539001	944.768005	-2.681875	7.721875	4.598125
59.170002	-130.417999	1059.020996	-0.538125	34.037498	0.091875
-242.597000	-86.132004	1037.792969	-5.451250	4.943750	2.550625
-59.902000	-111.934998	1007.354004	-15.076250	7.026250	-11.795000
-142.251999	-149.145004	1011.562988	20.973749	19.700624	-13.610625
-258.091003	-167.505997	911.156982	19.770624	1.903125	-12.451250
-132.492004	-109.678001	1088.301025	-1.452500	-8.242500	-6.107500
-198.738007	-124.195999	1009.671997	9.480625	-4.760000	0.026250
-171.897995	-90.219002	982.405029	15.566250	8.054375	-5.508125
-130.052002	-57.035000	1023.580017	8.596875	6.203750	-1.015000
-73.321999	-82.899002	1012.539001	-0.280000	-5.486250	1.557500
-33.489002	-70.760002	978.562012	-3.145625	-2.318750	-0.472500
-75.701004	-39.528000	986.553040	-10.373125	-8.833125	3.985625
-76.982002	-71.248001	951.234009	-17.766874	-15.290625	3.395000
-29.280001	-101.625999	1013.210022	-16.520000	-17.513124	2.533125
-119.743004	-113.277000	1034.133057	-2.633750	-13.081250	1.470000
-194.163010	-132.126007	976.915039	6.671875	-3.088750	-2.975000
-208.376007	-114.680000	1017.541016	7.306250	6.549375	-4.585000
-194.223999	-139.507004	979.965027	0.625625	0.511875	-3.447500
-149.328003	-158.112000	929.640015	-11.090625	-6.601875	3.521875
47.824001	-152.682999	1135.393066	-0.778750	-3.040625	5.560625
-233.874008	-85.095001	1040.171997	12.796875	6.873125	1.071875
-42.395000	-78.263000	1035.780029	-1.955625	5.420625	-4.423125
-57.340000	-68.747002	1024.129028	0.704375	-28.013124	3.968125
-86.986000	-83.082001	986.553040	3.241875	-14.595000	-2.257500
135.481003	-125.965004	1032.119995	20.925625	-3.101875	-8.933750
-28.975000	-20.984001	1014.674011	27.496876	-15.347500	-1.010625
73.749001	-50.020000	1054.750977	9.808750	4.720625	0.756875
253.943008	-120.474998	750.361023	-12.000625	-25.799376	14.236250
84.545998	-17.080000	950.257996	-2.353750	4.965625	9.231250
212.829010	51.667000	897.859009	16.834999	1.623125	-2.056250
242.779999	-103.456001	858.330994	8.960000	-0.988750	0.603750
111.325005	1.708000	965.630005	13.208125	23.130625	-10.123750
368.867004	-38.491001	936.960022	23.003750	-5.341875	-15.911875
412.970001	-15.067000	1014.796021	29.006250	-15.141875	-11.668125
317.200012	13.420000	1048.406982	11.978750	-12.263125	-13.120625
272.670013	59.414001	1048.346069	-12.586875	0.896875	-10.272500
245.768997	20.069000	1046.515991	-14.437500	7.691250	-4.580625
264.923004	-70.210999	1065.609009	-13.711250	5.083750	-0.980000
261.324005	-66.184998	1058.411011	-27.645624	8.185625	0.651875
299.692993	47.640999	1112.457031	-23.288124	10.570000	-0.210000
328.302002	-83.021004	960.567017	-21.638750	3.731875	-0.901250
349.713013	10.248000	944.645996	-26.958750	17.644375	1.680000
223.260010	-41.114002	835.700012	-42.678123	2.034375	2.515625
192.638000	-177.815002	737.124023	-33.184376	14.669375	-8.850625
56.547001	-69.417999	944.218994	1.820000	21.021875	-1.023750
-85.034004	-189.039001	729.194031	6.842500	-16.581249	1.911875
174.947998	-129.197998	1142.286011	18.357500	14.748125	0.516250
-155.977005	-73.139000	1009.611023	21.170626	-8.544375	10.661875
-83.814003	-114.741005	983.869019	23.100000	27.195000	-15.404375
-119.438004	-53.070000	1107.760010	27.282499	28.590626	-13.138125
-198.494003	-192.272003	806.846985	9.485000	-38.311874	-11.878125
-141.947006	-110.227005	1182.119019	10.521875	0.153125	-18.423124
-394.059998	-195.382996	955.442993	-1.277500	-14.704375	-9.432500
-310.062988	-194.834000	1033.339966	-21.433125	-36.505001	-4.121250
-253.393997	-143.410995	1145.519043	2.113125	1.955625	-4.847500
-258.945007	-114.802002	1045.479004	14.980000	28.371876	-9.913750
4.880000	-103.821999	1043.709961	6.689375	5.551875	-7.936250
108.823997	-98.514999	1072.989990	-0.266875	6.291250	-5.770625
37.758999	-73.504997	950.746033	-5.026875	13.120625	-1.172500
81.984001	-52.521000	976.976013	-11.528125	-2.747500	2.808750
66.856003	-56.973999	1004.669983	-11.528125	-2.747500	2.808750
66.856003	-56.973999	896.090027	-2.100000	-5.302500	2.957500
-52.643002	-64.965004	896.090027	4.668125	-2.913750	1.925000
5.124000	-68.564003	959.895996	4.208750	-11.620000	0.323750
69.967003	-68.564003	1067.865967	-0.052500	-9.813125	0.253750
41.236000	-111.081001	980.697021	-1.999375	-6.628125	-1.015000
74.969002	-122.427002	981.978027	3.268125	-3.259375	-4.528125
44.652000	-79.788002	1050.724976	2.620625	5.534375	-3.723125
24.766001	-93.330002	1001.254028	1.133125	8.596875	-4.830000
64.598999	-82.594002	1007.293030	7.560000	1.141875	-6.606250
56.181000	-87.230003	1028.276978	5.897500	-4.060000	-6.930000
-15.189000	-89.304001	951.966003	-1.111250	0.844375	-9.034375
-4.880000	-97.904999	1015.772034	-10.836875	-5.547500	-5.188750
-108.885002	-112.118004	1026.874023	-7.866250	-8.369375	-2.616250
-236.192001	-126.391998	1065.487061	-4.624375	-0.420000	-1.365000
-263.093018	-149.999008	1129.963989	4.825625	-3.478125	1.251250
-481.778015	-104.919998	1125.206055	14.997500	-1.780625	8.421875
-406.503998	-149.328003	1115.385010	-13.431250	-28.708750	16.813126
-66.246002	-213.012009	1016.199036	-3.150000	-32.541248	24.399376
-194.834000	-152.012009	1015.528015	50.697498	-26.530001	21.227501
-95.465004	35.624001	991.067017	52.255001	-12.118750	23.568125
-90.462997	-80.825005	853.145996	12.678750	-43.080624	39.606876
267.302002	16.531000	1034.193970	4.051250	27.020000	21.503124
312.320007	-35.929001	908.046021	20.807501	12.468750	-0.039375
309.880005	-4.392000	945.439026	15.338750	12.136250	-7.721875
393.145020	68.320000	919.453003	-11.221875	9.677500	-28.240625
570.411011	-48.007000	719.799988	-26.775000	-40.499374	-20.811874
598.044006	-46.726002	1052.921021	5.180000	-17.469376	-20.501249
604.083008	-96.746002	785.924011	43.684376	-12.512500	-28.083124
385.153992	185.744995	1116.117065	31.307501	28.748125	-16.467501
326.899017	105.286003	988.687988	-1.054375	30.629375	4.659375
202.520004	59.414001	967.033020	-16.161249	19.963125	11.182500
318.725006	16.042999	984.174011	-10.745000	22.098125	10.259375
78.507004	32.452000	969.411987	-2.712500	2.559375	13.881875
47.580002	38.735001	1079.943970	3.259375	-0.997500	0.122500
348.248993	-8.296000	959.346985	22.058750	22.535625	-4.086250
88.023003	-2.989000	895.236023	25.497499	6.986875	15.461250
62.525002	29.889999	936.166992	15.163750	11.637500	5.136250
303.718994	31.903000	948.671997	26.188749	20.496876	8.338750
-98.820000	67.282997	902.678040	9.384375	-10.233125	17.443125
94.488998	77.165001	975.634033	-3.381875	15.693125	-7.529375
-112.911003	-27.999001	794.525024	-20.706875	-7.818125	1.763125
-47.640999	96.746002	1092.571045	-9.471875	38.504375	-23.834999
-195.382996	115.717003	928.481018	-0.258125	50.286251	-31.819374
-165.554001	55.144001	1013.759033	-16.406250	-22.190001	-16.905001
60.817001	-45.201000	1075.307983	-4.501875	-4.983125	-14.612500
-83.692001	-68.137001	888.403992	-5.648125	-33.919376	-7.581875
-73.444000	73.993004	1183.156006	-14.043750	-48.203751	-4.742500
-31.598000	-59.963001	1129.171021	-2.533125	-33.201874	-6.461875
-122.122002	-30.378000	1135.759033	-13.072500	-18.895624	-4.895625
-108.458000	10.980000	1132.404053	-13.356875	-11.742500	-8.400000
-157.624008	-38.674000	1016.809021	-2.415000	-21.306250	-5.910625
-147.315002	-27.938000	1066.218994	-0.052500	-5.407500	-5.687500
-109.861000	-12.810000	1072.928955	10.810625	17.062500	-7.258125
-93.085999	-7.137000	1045.844971	4.738125	9.673125	-5.324375
2.257000	-25.254000	1020.713013	-4.856250	12.250000	-2.708125
39.833000	-25.375999	1018.455994	-9.086875	12.411875	0.787500
16.653000	-21.655001	1007.293030	-10.049375	9.948750	1.334375
30.866001	-39.528000	976.488037	-7.844375	5.748750	3.171875
-65.636002	-61.549000	906.033020	-2.747500	1.776250	5.201875
-69.662003	-43.371002	949.648010	-0.223125	-2.660000	6.203750
-148.718002	-39.833000	1003.510986	8.658125	-3.329375	7.441875
-273.402008	-50.325001	1010.098999	7.765625	3.893750	5.866875
-231.068008	-44.591000	1059.326050	-5.166875	6.116250	4.558750
-198.372009	-71.918999	1096.963013	-5.687500	19.600000	4.165000
-184.585999	-58.681999	1038.525024	-10.478125	32.396873	7.752500
-142.251999	-35.441002	1082.750000	-8.662500	22.316875	12.372500
-131.272003	-43.371002	1108.552979	-7.616875	10.360000	5.691875
-55.388000	-75.152000	903.166016	-1.343125	-3.110625	-1.260000
15.067000	-23.851000	966.239990	-6.269375	-22.150625	6.698125
178.669006	-135.419998	898.652039	5.871250	-3.513125	7.056875
80.093002	34.770000	1000.705017	14.573125	-29.006250	10.705625
164.639008	44.103001	1174.311035	22.806875	8.697500	-1.518125
425.170013	-41.174999	972.583984	20.479376	-24.850000	-8.076250
371.184998	9.333000	1006.012024	7.210000	-54.626251	-8.128750
554.124023	-91.805000	816.790039	21.748125	-15.570625	-10.381875
369.782013	60.756001	1090.802002	22.487499	13.405000	-1.334375
238.936996	105.408005	1052.555054	-0.730625	3.237500	0.949375
323.483002	58.438000	988.932007	-17.421249	13.269375	4.051250
160.490997	60.268002	1032.729980	-8.833125	15.238125	10.933125
113.704002	6.283000	983.807983	-11.440625	7.043750	12.298125
154.513000	-6.161000	1072.135986	-5.180000	8.102500	6.772500
147.070999	-1.403000	1034.376953	2.725625	19.691875	6.741875
160.552002	33.611000	1033.706055	0.052500	18.536875	5.989375
251.442001	-2.562000	993.751038	-7.931875	2.520000	7.476875
45.628002	12.444000	920.916992	-30.248751	10.416875	1.828750
118.096001	-96.868004	824.109985	-37.205002	12.950000	-11.948125
31.049000	-66.246002	842.837036	-19.993750	-25.873751	-14.717500
47.824001	-63.867001	929.945007	2.388750	14.520625	-22.124374
-122.366005	-75.334999	915.731995	8.216250	9.021250	-10.329375
31.232000	-74.298004	1018.639038	8.216250	30.073750	-21.905624
-296.338013	-88.571999	982.343994	16.397499	30.073750	-21.905624
-296.338013	-88.571999	982.343994	26.775000	36.308125	-12.958750
-178.425003	-88.206001	1119.959961	2.275000	-13.737500	-0.542500
-257.786011	-60.633999	1109.773071	-3.307500	-23.331875	5.451250
-309.514008	-82.289001	935.862000	9.423750	-7.437500	2.270625
-154.574005	-72.041000	1142.957031	29.649376	-10.381875	2.515625
-206.607010	-24.888000	1037.122070	28.013124	-11.777500	0.231875
-110.715004	1.708000	1050.176025	-0.503125	-14.087500	-4.746875
-13.115000	-22.997000	1012.051025	-9.209375	-17.377501	-9.419375
-46.604000	-33.733002	979.049988	-1.491875	-2.235625	-9.537500
-0.732000	-9.455000	1071.770020	1.260000	0.945000	-9.248750
-13.786000	-17.385000	1005.768005	-0.017500	-14.756875	-3.898125
-17.446001	-43.737000	1018.212036	8.601250	-6.720000	-1.470000
-87.901001	-32.818001	970.876038	-5.512500	-0.813750	-0.323750
-110.836998	-45.079002	903.776001	-21.100624	-3.250625	0.704375
-124.928001	-21.899000	961.848022	-20.256250	2.852500	0.875000
-134.505005	-19.886000	1049.749023	-5.827500	1.343125	0.245000
-124.988998	-28.975000	1079.943970	12.219375	-8.295000	1.470000
-65.758003	-41.053001	1092.265991	21.980000	-10.237500	1.155000
-158.722000	-10.126000	1064.389038	36.006248	6.216875	-1.771875
-338.367004	-3.477000	937.082031	20.886250	29.378124	-14.078750
-24.583000	3.965000	1122.765991	-15.535625	20.864374	-16.161249
-109.373001	-86.742004	912.377014	0.564375	5.136250	-9.765000
-304.695007	10.309000	887.244995	15.211875	45.526249	-7.555625
-82.899002	31.049000	1081.103027	-3.075625	23.450001	-3.115000
-110.105003	-5.185000	1149.789062	-19.079374	-22.889999	6.720000
33.855000	-31.903000	1160.342041	-41.750626	15.758750	-1.089375
197.335007	-219.722000	1004.182007	-58.454376	-2.581250	14.096250
-89.121002	-271.389008	757.742004	-38.937500	-6.295625	11.830000
44.896000	120.353004	1089.886963	-0.345625	-1.601250	-4.405625
31.232000	-90.462997	975.085022	18.733749	-4.401250	-12.341875
201.910004	-0.122000	948.733032	24.784374	-32.103748	-21.665001
351.299011	2.989000	977.342041	36.662498	-18.401251	-25.987499
265.899017	106.201004	1079.029053	18.129999	-30.240000	-10.193750
353.678009	-1.952000	952.454041	1.041250	1.500625	-6.724375
160.369003	47.396999	966.117981	-1.820000	5.337500	8.907500
105.834999	-7.137000	941.413025	-19.468750	4.585000	10.596250
144.020996	-37.453999	1026.568970	-22.684376	7.459375	8.890000
49.043999	-40.260002	961.604004	-15.373750	-10.294375	8.710625
116.570999	-60.268002	1064.389038	-2.961875	-5.543125	-0.345625
225.578003	-144.875000	912.742981	4.033750	-24.167500	1.973125
105.591003	-47.519001	1096.657959	1.369375	8.653750	-1.448125
285.175018	-44.225002	1040.477051	-3.246250	-6.969375	4.353125
72.773003	-74.664001	931.348022	-5.757500	-4.725000	15.890000
225.699997	-29.889999	978.928040	-11.112500	6.531875	18.773125
14.213000	-123.342003	800.625000	-4.357500	-17.723125	21.516251
18.849001	-61.610001	1009.489014	10.749375	23.073750	6.125000
91.134003	-34.038002	973.559998	-6.768125	-7.625625	15.233750
-18.544001	-169.641006	884.317017	11.134375	1.041250	-3.451875
87.230003	-31.964001	1180.716064	11.703125	20.536249	-14.896875
-50.386002	-121.329002	915.609985	-0.109375	-17.233126	-0.555625
-59.597000	-182.878006	945.866028	0.857500	-11.265625	0.975625
-73.566002	-88.571999	1011.075012	17.071251	-4.528125	6.781250
-270.901001	-78.750999	1008.574036	17.631250	-18.795000	14.358750
-169.763000	-37.453999	1134.599976	-0.538125	-0.682500	3.386250
-41.785000	-131.516006	1017.296997	1.509375	-12.617500	8.058750
-261.567993	-96.196999	952.575989	12.040000	-9.918125	5.617500
-49.288002	-93.025002	1096.841064	34.711250	21.765625	-7.000000
-104.981003	-52.399002	1067.744019	25.891251	14.800625	-0.853125
-134.688004	57.340000	1075.125000	0.153125	2.117500	-4.256875
25.437000	-2.196000	1000.278015	-17.040625	2.187500	-8.400000
52.338001	-38.430000	1011.989990	-6.339375	-1.614375	-6.234375
98.697998	-54.290001	1037.671021	9.988125	5.333125	-11.077500
21.106001	-43.066002	970.083008	8.408750	2.878750	-5.201875
-64.965004	-21.045000	985.272034	-1.977500	-1.968750	-0.691250
-0.671000	-41.236000	1000.643982	-5.250000	-2.148125	-4.851875
-48.068001	-56.119999	1047.614014	-3.106250	-5.481875	-5.009375
-180.621002	-13.420000	1058.349976	-2.187500	0.603750	-6.711250
-167.505997	-16.348000	1077.931030	-4.090625	5.026875	-8.001875
-206.363007	-53.497002	1056.337036	-3.045000	11.243750	-3.338125
-189.222000	-45.811001	984.234985	-7.389375	29.181250	-5.140625
-82.472000	-11.163000	1100.379028	-5.643750	16.082500	-1.570625
-154.268997	-19.093000	941.718018	-0.030625	25.331249	0.148750
-225.516998	30.927000	1064.693970	3.959375	24.688126	-0.476875
-179.218002	-65.514000	879.010010	-6.571250	-10.128125	-6.768125
-49.593002	-35.746002	1107.515991	5.267500	10.298750	-5.355000
-81.251999	-45.445000	967.338013	-6.243125	-6.405000	-6.186250
-14.701000	-132.796997	864.553040	-0.306250	-2.568125	-9.568125
97.294998	-84.790001	1028.399048	13.374375	1.360625	-2.240000
12.749001	-165.432007	755.241028	13.370000	-37.134998	-4.173750
230.580002	-82.654999	1157.170044	31.268126	-11.786250	-6.641250
89.181999	52.338001	1111.786011	23.384375	-48.860001	-1.102500
219.783005	-55.144001	1007.293030	28.831249	-20.803125	-6.523125
119.621002	25.437000	1134.051025	28.831249	-20.803125	-6.523125
119.621002	25.437000	1134.051025	34.903751	-6.103125	-6.820625
147.863998	82.349998	978.562012	13.238750	-12.748750	-6.177500
116.632004	69.295998	925.553040	-6.195000	5.836250	-8.798125
248.819000	32.879002	1007.536987	-25.969999	5.464375	-8.443750
243.512009	27.938000	1006.866028	-5.639375	4.690000	-0.853125
206.607010	75.029999	998.265015	7.564375	13.190625	1.946875
181.841003	70.272003	957.517029	-4.077500	18.825624	9.926875
156.221008	-23.424000	891.332031	-8.596875	23.970625	12.530000
65.758003	9.699000	962.885010	5.350625	19.363750	15.456875
-36.660999	64.843002	989.054016	12.687500	13.313125	7.293125
96.441002	49.897999	1086.471069	24.373125	20.098749	-5.495000
92.475998	133.406998	1032.058960	13.103125	10.622500	-3.272500
165.675995	34.892002	967.582031	10.443125	12.543125	-2.362500
59.535999	46.237999	941.046997	5.092500	13.466250	7.056875
278.648010	19.825001	1020.957031	-10.303125	7.175000	-2.493750
-59.841000	-40.504002	835.700012	-25.777500	1.618750	15.330000
-14.518001	51.972000	977.098022	-22.286249	-0.511875	5.551875
-102.785004	-61.366001	876.875000	0.371875	-19.788124	2.638125
-91.377998	36.904999	1094.950073	-7.774375	-6.851250	-3.933125
-74.054001	42.882999	1041.941040	-22.198750	-11.042500	-3.640000
-79.971001	-23.790001	776.164001	-19.398750	-32.624374	5.228125
-35.501999	23.058001	1192.550049	-17.224375	-1.071875	4.873750
-212.951004	-24.034000	751.947021	10.438750	-35.301876	1.277500
-136.884003	-76.311005	1028.826050	7.844375	-21.061251	-2.935625
-45.872002	-6.649000	1245.131958	15.155000	7.818125	-6.877500
-207.705002	-40.748001	931.226013	28.245001	-10.198125	-2.056250
-104.981003	34.770000	1238.300049	16.524376	-12.263125	-1.666875
-118.828003	16.592001	1138.442993	12.285000	-8.815625	-5.993750
-159.393005	-8.723001	950.257996	-0.761250	-18.764376	-7.643125
5.856000	25.925001	1184.498047	-19.985001	-6.295625	-5.976250
-17.507000	-16.042999	990.579041	-15.907500	6.291250	-3.451875
28.670000	-15.982000	994.726990	-8.618750	2.791250	-5.184375
90.524002	-40.687000	992.470032	-12.621875	-7.175000	3.994375
-96.380005	-14.030000	857.111023	-7.446250	-8.885625	11.204375
-47.580002	0.976000	996.496033	0.402500	14.056875	-0.643125
-15.250000	-10.797000	1010.281982	-0.105000	6.265000	-2.161250
-35.014000	-10.492001	988.139038	2.366875	5.337500	-3.657500
-14.457000	-12.932000	1023.518982	0.538125	10.329375	-2.865625
-55.083000	-42.334000	985.455017	2.883125	4.913125	2.677500
