A_X[mg]	A_Y[mg]	A_Z[mg]	G_X[dps]	G_Y[dps]	G_Z[dps]	
138.958008	39.406002	1047.979980	-25.773125	-27.597500	-28.949375
134.932007	43.126999	1047.492065	-25.961250	-27.641251	-29.049999
141.459000	45.383999	1048.346069	-26.009375	-27.663124	-29.159374
138.835999	36.783001	1045.174072	-25.961250	-27.763750	-29.190001
141.824997	38.430000	1044.197998	-25.974375	-27.768126	-29.093750
138.470001	40.625999	1048.285034	-25.991875	-27.754999	-29.163750
137.981995	42.212002	1049.443970	-25.904375	-27.750626	-29.150625
140.971008	47.885002	1051.822998	-25.536875	-27.838125	-28.984375
140.178009	39.955002	1052.615967	-25.847500	-27.811874	-29.032499
142.007996	35.501999	1057.435059	-26.018126	-27.816250	-29.120001
138.225998	36.722000	1051.213013	-25.668125	-27.763750	-29.010626
140.300003	38.307999	1054.994995	-25.821251	-27.715626	-28.988750
136.884003	46.421001	1044.503052	-25.738125	-27.803125	-29.084999
136.884003	36.904999	1042.124023	-25.891251	-27.654375	-29.211876
137.128006	36.600002	1042.368042	-25.825624	-27.741875	-29.128750
140.971008	41.785000	1044.320068	-26.110001	-27.689375	-29.084999
137.005997	43.310001	1049.749023	-25.851875	-27.719999	-28.975624
140.848999	44.164001	1048.712036	-25.720625	-27.855625	-29.098125
140.178009	38.612999	1050.053955	-25.698750	-27.737499	-29.190001
142.130005	36.355999	1049.199951	-25.633125	-27.890625	-29.264376
133.406998	38.979000	1047.248047	-25.528126	-27.750626	-29.006250
138.775009	40.504002	1052.432983	-25.672501	-27.763750	-28.888124
144.630997	44.469002	1050.297974	-25.510626	-27.671875	-28.966875
143.960007	43.675999	1047.735962	-25.580626	-27.549376	-29.098125
137.677002	38.125000	1047.979980	-25.598125	-27.588751	-29.211876
136.152008	37.820000	1047.858032	-25.506250	-27.698126	-29.093750
143.410995	37.698002	1050.053955	-25.746876	-27.575624	-28.953751
137.555008	44.957001	1049.078003	-25.694374	-27.676250	-29.032499
141.824997	41.114002	1050.420044	-25.611250	-27.719999	-28.940624
141.520004	43.554001	1052.494019	-25.948126	-27.772499	-29.128750
139.080002	34.465000	1047.858032	-25.948126	-27.772499	-29.023750
139.080002	34.465000	1046.394043	-25.847500	-27.772499	-29.023750
134.322006	43.126999	1046.394043	-25.685625	-27.776875	-29.010626
134.809998	46.177002	1047.492065	-25.523750	-27.790001	-28.984375
151.524002	44.285999	1049.199951	-25.449375	-27.811874	-29.071875
139.018997	41.968002	1044.686035	-25.698750	-27.776875	-29.220625
132.553009	34.098999	1045.540039	-26.363750	-27.860001	-29.365000
137.677002	38.612999	1053.042969	-25.703125	-27.754999	-29.246876
144.630997	43.493000	1047.187012	-25.589375	-27.763750	-29.049999
146.156006	40.992001	1043.099976	-25.729376	-27.794374	-29.076250
137.432999	41.236000	1046.821045	-25.764376	-27.895000	-29.207500
136.029999	32.390999	1049.199951	-25.628750	-27.754999	-29.014999
138.104004	41.541000	1046.515991	-25.746876	-27.825001	-28.984375
144.996994	47.640999	1047.248047	-25.825624	-27.790001	-28.984375
137.555008	43.066002	1046.150024	-25.803749	-27.724375	-29.102501
140.300003	34.709000	1047.369995	-25.567499	-27.663124	-29.211876
140.056000	34.892002	1048.833984	-25.860624	-27.803125	-29.168125
133.406998	40.687000	1045.540039	-25.549999	-27.636875	-29.146250
137.067001	41.480000	1049.139038	-25.480000	-27.750626	-29.045626
138.470001	41.968002	1046.150024	-25.698750	-27.860001	-29.032499
141.824997	36.417000	1047.735962	-25.703125	-27.803125	-29.124374
136.091003	32.818001	1050.359009	-25.589375	-27.737499	-29.159374
133.589996	34.952999	1045.661987	-25.685625	-27.768126	-29.133125
138.408997	40.809002	1045.661987	-25.471251	-27.728750	-29.098125
142.190994	42.090000	1044.076050	-25.707500	-27.680626	-29.111250
141.397995	37.820000	1052.067017	-25.834375	-27.654375	-29.137501
141.276001	36.112000	1047.248047	-25.488750	-27.654375	-29.067499
139.324005	40.077000	1045.174072	-25.375000	-27.671875	-28.905624
140.300003	38.063999	1046.638062	-25.655001	-27.711250	-29.150625
142.434998	42.882999	1044.807983	-25.563126	-27.781250	-29.071875
133.406998	42.821999	1046.942993	-25.676874	-27.728750	-29.076250
140.604996	37.942001	1042.368042	-25.440624	-27.580000	-29.155001
141.154007	34.526001	1046.942993	-25.466875	-27.658751	-29.168125
138.714005	38.735001	1046.271973	-25.777500	-27.580000	-29.001875
138.835999	49.227001	1044.686035	-25.611250	-27.768126	-29.111250
139.690002	38.979000	1045.052002	-25.523750	-27.698126	-29.006250
140.544006	41.297001	1044.686035	-25.952499	-27.746250	-29.233749
141.397995	37.576000	1043.222046	-25.637501	-27.728750	-29.229376
139.934006	34.282001	1044.807983	-25.663750	-27.645624	-29.133125
144.387009	40.931000	1045.417969	-25.795000	-27.566875	-29.176874
137.311005	34.709000	1036.451050	-25.856251	-27.575624	-29.089375
143.289001	42.639000	1046.577026	-25.961250	-27.658751	-29.019375
131.576996	36.539001	1047.735962	-25.506250	-27.632500	-29.089375
139.141006	42.272999	1053.042969	-25.781876	-27.838125	-29.111250
142.313004	47.031002	1055.300049	-25.676874	-27.759375	-29.102501
138.104004	34.342999	1051.761963	-25.698750	-27.711250	-29.063126
138.958008	42.761002	1048.712036	-25.707500	-27.750626	-29.106874
139.568008	41.846001	1048.223999	-25.571875	-27.645624	-29.159374
139.690002	40.869999	1044.807983	-25.519375	-27.754999	-29.168125
136.029999	38.063999	1043.832031	-25.672501	-27.663124	-29.098125
141.459000	37.332001	1044.320068	-25.952499	-27.636875	-29.084999
137.494003	43.126999	1044.563965	-26.184376	-27.671875	-29.155001
138.714005	42.334000	1049.260986	-25.663750	-27.671875	-29.049999
139.201996	38.552002	1050.297974	-25.563126	-27.715626	-29.111250
140.056000	40.015999	1044.869019	-25.725000	-27.890625	-29.168125
134.688004	35.746002	1041.514038	-25.668125	-27.772499	-29.111250
139.141006	37.332001	1042.368042	-25.514999	-27.698126	-29.010626
138.470001	43.493000	1050.724976	-25.445000	-27.650000	-28.971251
138.104004	46.786999	1047.369995	-25.580626	-27.702499	-28.997499
138.470001	35.319000	1045.052002	-25.873751	-27.693750	-29.102501
138.835999	35.136002	1050.603027	-25.628750	-27.711250	-29.080626
136.762009	38.368999	1047.125977	-25.755625	-27.676250	-29.106874
141.947006	45.323002	1051.945068	-25.786249	-27.632500	-29.001875
137.860001	46.604000	1048.589966	-25.939375	-27.724375	-29.032499
138.714005	39.833000	1045.906006	-25.790625	-27.886250	-29.176874
141.276001	39.650002	1047.248047	-25.961250	-27.825001	-29.102501
135.115005	44.469002	1047.614014	-25.720625	-27.733126	-29.014999
141.459000	42.456001	1047.004028	-25.856251	-27.667500	-29.058750
141.397995	39.894001	1046.515991	-25.891251	-27.750626	-29.045626
131.943008	39.406002	1048.102051	-25.803749	-27.829374	-29.141874
135.847000	38.307999	1049.810059	-25.672501	-27.890625	-29.084999
137.981995	45.201000	1044.747070	-25.795000	-27.698126	-29.071875
143.289001	40.382000	1046.821045	-25.987499	-27.829374	-29.106874
137.555008	43.249001	1049.078003	-25.996250	-27.851250	-29.172501
142.434998	37.149002	1045.417969	-25.812500	-27.575624	-29.190001
140.544006	38.552002	1046.515991	-25.821251	-27.584375	-29.211876
137.005997	35.990002	1048.223999	-25.733749	-27.711250	-29.014999
138.958008	38.552002	1047.979980	-25.764376	-27.754999	-29.084999
138.348007	41.053001	1046.027954	-25.755625	-27.684999	-29.176874
137.981995	41.968002	1047.735962	-25.611250	-27.750626	-29.216249
141.824997	38.917999	1048.346069	-25.606874	-27.873125	-29.111250
138.225998	37.332001	1049.566040	-25.882500	-27.890625	-29.128750
141.337006	36.844002	1050.053955	-25.615625	-27.706875	-29.159374
138.225998	41.663002	1048.956055	-25.388124	-27.803125	-29.133125
138.225998	35.563000	1048.712036	-25.711876	-27.860001	-29.150625
140.056000	42.761002	1047.248047	-25.991875	-27.803125	-29.190001
136.639999	40.382000	1047.735962	-25.799376	-27.737499	-29.106874
141.093002	39.040001	1046.394043	-25.803749	-27.816250	-29.098125
139.445999	43.371002	1047.125977	-25.611250	-27.816250	-28.993126
141.641998	38.674000	1045.906006	-25.593750	-27.794374	-29.054375
138.470001	39.650002	1045.661987	-25.287500	-27.737499	-29.014999
138.104004	41.114002	1048.895020	-25.615625	-27.706875	-29.176874
136.518005	37.088001	1047.614014	-25.449375	-27.606251	-29.093750
138.104004	43.980999	1046.638062	-25.589375	-27.606251	-29.102501
138.225998	38.612999	1046.027954	-25.589375	-27.663124	-29.120001
138.958008	41.541000	1048.589966	-25.725000	-27.741875	-29.115625
141.703003	43.066002	1046.271973	-25.803749	-27.737499	-29.054375
139.568008	45.688999	1045.540039	-25.843124	-27.684999	-29.028126
137.128006	45.139999	1049.383057	-25.786249	-27.715626	-28.997499
141.093002	38.491001	1046.271973	-25.799376	-27.667500	-29.084999
140.787994	40.382000	1047.248047	-25.633125	-27.715626	-29.054375
134.871002	41.114002	1043.343994	-25.633125	-27.776875	-29.067499
138.531006	43.554001	1047.552979	-25.248125	-27.776875	-29.067499
138.531006	43.554001	1047.552979	-24.871876	-27.676250	-29.120001
135.542007	40.138000	1044.320068	-25.396875	-27.650000	-29.106874
135.542007	35.990002	1049.626953	-25.838751	-27.645624	-29.058750
136.395996	42.151001	1048.712036	-25.965626	-27.711250	-29.071875
137.005997	39.284000	1048.223999	-25.900000	-27.706875	-29.014999
141.337006	42.761002	1048.102051	-25.838751	-27.855625	-29.115625
138.225998	39.284000	1047.735962	-25.549999	-27.663124	-28.962500
141.337006	37.698002	1047.979980	-25.471251	-27.667500	-28.980000
139.811996	41.541000	1049.566040	-25.410000	-27.698126	-28.984375
140.300003	39.650002	1042.307007	-25.541250	-27.776875	-29.093750
137.738007	42.151001	1048.895020	-25.773125	-27.728750	-29.010626
139.811996	37.820000	1043.953979	-25.584999	-27.676250	-29.063126
134.016998	39.771999	1042.978027	-25.952499	-27.759375	-29.014999
137.067001	40.625999	1048.162964	-25.904375	-27.864374	-29.028126
133.102005	39.894001	1045.174072	-25.991875	-27.728750	-29.054375
138.287003	38.186001	1047.492065	-25.466875	-27.650000	-29.067499
139.324005	38.917999	1045.540039	-25.685625	-27.549376	-28.984375
138.591995	39.894001	1045.906006	-25.545626	-27.540625	-28.988750
137.981995	41.723999	1049.749023	-25.300625	-27.606251	-29.076250
142.923004	41.602001	1043.282959	-25.549999	-27.759375	-29.014999
139.934006	39.040001	1045.417969	-25.353125	-27.689375	-28.949375
138.591995	47.275002	1048.162964	-25.567499	-27.733126	-29.063126
139.080002	36.783001	1046.271973	-25.672501	-27.632500	-29.028126
138.835999	42.028999	1045.174072	-25.878124	-27.671875	-29.019375
139.324005	38.674000	1048.895020	-26.416250	-27.838125	-28.962500
136.274002	40.382000	1046.638062	-25.978750	-27.733126	-29.098125
138.104004	40.382000	1041.391968	-25.248125	-27.632500	-29.063126
140.604996	35.136002	1045.967041	-25.869375	-27.623751	-29.080626
139.811996	40.687000	1051.213013	-25.917500	-27.785625	-29.106874
144.996994	38.430000	1049.199951	-25.773125	-27.803125	-29.093750
140.178009	36.478001	1044.807983	-25.348749	-27.549376	-29.014999
142.007996	37.209999	1048.041016	-25.576250	-27.593124	-29.058750
140.056000	31.964001	1050.420044	-25.760000	-27.514376	-28.931875
137.615997	43.310001	1046.638062	-26.158125	-27.663124	-29.049999
143.044998	41.723999	1051.213013	-25.655001	-27.741875	-28.988750
142.007996	39.040001	1042.185059	-26.070625	-27.680626	-29.163750
139.934006	38.796001	1044.563965	-25.707500	-27.610624	-29.067499
139.324005	39.528000	1043.953979	-25.760000	-27.763750	-29.172501
140.056000	35.868000	1048.285034	-25.471251	-27.580000	-29.093750
138.958008	40.443001	1046.515991	-25.738125	-27.667500	-29.001875
143.044998	38.430000	1043.099976	-26.118750	-27.724375	-29.133125
138.591995	37.332001	1046.333008	-26.057501	-27.737499	-29.225000
138.225998	38.430000	1045.296021	-25.768749	-27.667500	-29.098125
140.178009	44.957001	1047.004028	-25.563126	-27.754999	-29.133125
139.568008	44.164001	1044.563965	-25.554375	-27.759375	-29.041250
103.821999	77.653000	1177.117065	-28.629999	-29.605625	-30.314375
81.129997	83.082001	1070.550049	-20.991249	-28.809376	-26.503750
38.612999	101.443001	987.651001	-32.423126	-27.571251	-25.235001
41.418999	110.348999	977.281006	-25.270000	-28.236250	-27.934376
103.821999	112.423004	1135.880981	-11.921875	-33.206249	-30.266251
116.510002	172.751999	1150.703979	-15.426250	-32.003124	-27.728750
165.432007	195.992996	1285.880005	-15.426250	-32.003124	-25.055626
165.432007	240.218002	1409.099976	-4.296250	-41.886250	-25.055626
120.169998	240.218002	1409.099976	-3.447500	-58.082500	-22.343124
197.395996	215.391006	1505.175049	-0.717500	-60.414375	-27.431250
224.846008	277.916016	1408.612061	-8.211875	-87.324997	-18.738125
-35.990002	172.569000	1457.838989	-16.183125	-101.290001	-16.218124
74.603004	147.559006	1089.520996	-41.820625	-81.471252	-20.221251
227.774002	67.099998	957.395020	-53.108124	-102.423126	-16.576876
142.190994	35.868000	673.195984	-56.183750	-123.746872	-20.260626
245.098007	7.686000	477.691010	-46.309376	-101.504372	-28.017500
383.812012	52.094002	312.869019	-47.328751	-58.305626	-27.623751
391.925018	-8.784000	339.769989	-37.314377	-38.574375	-23.012501
257.602997	-91.987999	321.470001	-56.503124	-12.105625	-23.095625
143.167007	-40.199001	347.821991	-62.409374	22.246876	-29.701876
109.800003	-133.468002	747.616028	-26.232500	44.996876	-43.653751
129.503006	9.577000	755.606995	-49.625626	70.455002	-45.342499
88.876999	58.255001	955.382019	-2.135000	61.993752	-36.763126
-5.002000	-57.889000	1195.295044	16.607500	61.403126	-42.551250
144.264999	263.398010	1243.911987	9.353750	62.195000	-48.615002
101.198997	199.104004	1691.286011	23.642500	27.610624	-39.016251
46.055000	305.488007	1617.415039	-8.513750	20.186251	-42.568748
245.464005	361.912994	1763.448975	-23.117500	10.701250	-42.717499
216.671997	330.376007	1726.971069	-19.495001	-25.033751	-30.506874
74.176003	269.131989	1720.870972	-20.243126	-52.924374	-29.758751
237.350998	292.373016	1520.852051	-40.088123	-68.149376	-29.745625
141.886002	171.593002	1436.977051	-16.161249	-112.638748	-16.336250
-15.372000	23.607000	1409.526978	-16.821875	-114.174377	-20.671875
96.196999	68.930000	1135.636963	-29.513750	-119.520622	-24.745001
21.899000	28.121000	909.570984	-28.393749	-124.004997	-18.011875
-3.843000	-11.651000	788.424988	-27.531876	-99.868126	-16.756250
148.839996	96.258003	414.433990	-52.854374	-95.291878	-16.082500
147.009995	66.489998	234.301010	-46.724998	-87.268127	-20.151251
256.200012	79.300003	334.218994	-25.580626	-43.776249	-24.290001
364.291992	52.643002	242.048004	-42.796249	-14.332500	-26.215000
276.269012	50.630001	150.059998	-38.744999	14.188125	-24.911249
226.188004	-8.235000	470.798004	-2.226875	21.835625	-20.496876
-48.129002	-33.855000	768.661011	4.996250	51.681873	-34.544998
108.092003	137.615997	965.142029	-12.206250	94.320625	-51.537498
33.000999	37.027000	1101.660034	-2.143750	73.486877	-42.669376
31.476000	323.483002	1082.140015	18.633125	65.183128	-50.439377
222.466995	385.764008	1624.063965	12.035625	32.904373	-30.165625
-77.530998	296.277008	1654.686035	-26.455626	20.776875	-28.905624
99.369003	442.920990	1751.981079	-38.605000	25.077499	-35.349998
-13.420000	249.429001	1842.078003	-47.810001	-8.719375	-29.798124
18.177999	281.088013	1592.343994	-71.504997	-25.322500	-36.023750
214.720001	309.026001	1663.286987	-43.487499	-65.388748	-25.991875
29.036001	183.610001	1517.984985	-40.140625	-122.731873	-13.090000
16.653000	110.959000	1282.708008	-47.543125	-129.145630	-14.879375
75.029999	54.107002	1103.307007	-51.594376	-127.268753	-13.842500
89.304001	50.386002	890.416992	-40.569374	-138.652496	-18.099375
127.917000	24.948999	876.936035	-20.671875	-130.716248	-18.051250
135.115005	38.430000	618.966980	-38.180626	-96.149376	-19.385626
232.227005	67.099998	369.660004	-55.737499	-71.631874	-27.356874
373.563995	74.969002	374.113007	-33.871250	-52.981251	-25.462500
325.252014	32.269001	366.549011	-7.853125	-42.113750	-18.493126
197.762009	-56.181000	388.143005	-18.943750	-2.664375	-27.103125
251.747009	-11.956000	401.014008	-50.623123	49.349998	-34.195000
134.139008	-61.732002	635.864014	-28.310625	57.828751	-38.097500
124.867004	-35.868000	761.280029	-39.506248	93.493752	-46.051250
-3.660000	-71.918999	892.856995	-25.738125	106.303749	-48.155624
-90.584999	48.922001	877.302002	-37.121876	134.124374	-62.986874
100.100998	56.424999	1419.469971	15.627500	94.596252	-46.484375
-319.640015	116.265999	1383.846069	-4.086250	72.043121	-35.415627
-152.500000	157.563004	1529.697021	-5.893125	43.623123	-26.075001
-343.795990	274.195007	1772.781982	11.843125	-12.993750	-18.471251
-284.992004	276.330017	1998.604004	6.063750	-32.410000	-29.885626
-130.052002	277.306000	1731.729004	-33.661251	-59.220001	-29.798124
-267.118988	212.402008	1531.466064	-43.841873	-100.393127	-28.087500
-150.242996	125.843002	1450.336060	-39.340000	-116.125626	-31.451876
-91.012001	158.600006	1234.151978	-27.418125	-136.955002	-24.709999
-113.277000	55.449001	1173.274048	-23.734375	-143.342499	-23.209375
64.355003	10.858000	882.609009	-42.328125	-136.482498	-24.010000
143.837997	79.483002	514.046997	-51.152500	-141.067505	-20.387501
322.385010	15.860001	466.772003	-24.171875	-128.205002	-12.652500
305.244019	60.633999	401.989990	-14.612500	-103.035622	-5.705000
254.492004	25.010000	353.921997	-31.745001	-40.473125	-17.451876
218.867996	-48.617001	301.889008	-43.636250	-7.065625	-26.254375
39.833000	-78.568001	454.205994	-39.213123	27.654375	-38.810623
306.769012	-91.927002	573.278015	-47.389999	67.011871	-51.213749
232.593002	23.241001	674.598999	-15.518125	29.898750	-33.569374
-38.735001	-163.479996	1012.356018	7.420000	45.465000	-42.730625
215.635010	169.275009	1101.294067	-22.133125	77.192497	-51.760624
15.982000	0.488000	1307.169067	-15.299375	55.168751	-41.269375
75.152000	145.729004	1148.264038	-62.313126	78.907501	-43.365002
136.395996	192.393997	1341.328979	-29.010626	12.678750	-17.298750
-233.630005	13.481000	1341.511963	-16.992500	0.293125	-14.936250
122.854004	382.226013	1378.416992	-11.764375	-3.163125	-21.245001
62.586002	379.664001	1796.816040	56.498749	-58.078125	-6.571250
-132.919006	201.971008	1817.129028	56.498749	-58.078125	-6.571250
-132.919006	201.971008	1367.254028	21.844376	-55.562500	-7.660625
-83.997002	186.538010	1367.254028	-41.387501	-46.650623	-24.972500
54.290001	115.717003	1270.508057	-37.769375	-63.997501	-29.338751
46.055000	75.701004	1292.162964	-20.593124	-80.324997	-29.850624
64.111000	64.355003	1142.591064	-27.225624	-69.076874	-32.843124
124.928001	48.922001	1087.325073	-19.105625	-92.277496	-40.551876
133.041000	139.324005	1187.364990	13.868750	-113.277496	-44.821877
141.459000	113.764999	1207.617065	2.515625	-101.613747	-35.756874
67.527000	109.556000	1031.937012	-31.521875	-81.961250	-28.328125
119.011002	153.110001	851.255005	-50.579376	-68.783752	-28.783125
188.063004	130.235001	767.319031	-48.094376	-63.603748	-29.124374
183.365997	160.307999	491.233002	-62.925625	-56.516251	-31.150000
364.902008	153.171005	395.890015	-48.912498	-53.908749	-31.333750
347.578003	108.580002	449.265015	-39.856251	-49.043751	-24.898125
268.399994	84.607002	339.037994	-41.308750	-16.323126	-26.700624
348.859009	78.018997	493.002014	-32.480000	5.026875	-29.268749
211.425995	24.827000	675.757996	-36.080624	25.449375	-30.664375
238.632004	9.150001	716.750000	-48.260624	45.644375	-33.175625
106.932999	-95.221001	755.851013	-37.568127	22.058750	-28.363125
147.070999	101.625999	916.036987	-13.225625	30.152500	-24.561251
115.167999	-2.257000	1226.953979	11.440625	31.071251	-23.012501
105.834999	66.429001	877.119019	-56.840000	76.195000	-33.976250
243.268005	172.020004	1201.456055	-30.581249	32.628750	-2.896250
-360.510010	-67.039001	1267.519043	-17.832500	11.016250	6.335000
-162.138000	99.064003	1070.244995	-35.765625	43.435001	-15.413125
-116.632004	237.778000	1607.593994	37.852501	-17.066875	-12.814375
-101.015999	191.417999	1975.424072	37.401875	-25.865000	-26.770624
110.898003	390.888000	1762.717041	-17.171875	-7.822500	-42.743752
28.792000	318.481018	1658.041016	-49.389374	-41.326248	-37.489376
-87.168999	207.400009	1545.984009	-41.711250	-74.108124	-36.316875
