A_X [mg]	A_Y [mg]	A_Z [mg]	G_X [dps]	G_Y [dps]	G_Z [dps]
-35.746002	1.647000	960.994019	4.830000	-0.673750	-15.448125
4.209000	-4.453000	983.564026	-5.827500	-18.410000	-6.461875
-14.579000	-12.871000	1007.476013	-0.695625	-2.353750	-5.293750
29.341000	0.854000	1014.064026	-8.806875	-8.115625	0.196875
16.104000	-27.145000	1049.810059	2.288125	1.181250	-3.329375
12.810000	6.222000	1056.031982	0.485625	-1.876875	-0.608125
14.213000	-13.481000	1036.572998	3.364375	0.529375	2.069375
18.971001	-2.928000	1053.042969	-4.068750	-1.233750	3.421250
8.967000	-28.487000	1013.270996	-7.748125	5.429375	3.521875
8.662000	-27.816000	994.848999	-0.271250	2.410625	4.493125
8.418000	-19.580999	1043.709961	-3.132500	-2.143750	2.441250
18.910000	-39.589001	1016.931030	2.196250	1.522500	2.270625
29.889999	-21.472000	1041.635986	1.806875	4.948125	0.516250
6.222000	-13.542000	1000.095032	-1.351875	-3.994375	1.176875
14.152000	-37.332001	1003.694031	-0.630000	5.153750	0.564375
13.298000	-6.771000	1017.968018	1.312500	-4.427500	-0.945000
18.483000	-24.461000	1017.358032	1.754375	0.503125	2.108750
11.224000	-36.660999	993.812012	-1.697500	-8.452500	2.135000
22.814001	-49.837002	1045.600952	1.211875	2.835000	0.017500
21.837999	-36.417000	996.434998	-2.419375	-0.905625	-0.148750
15.067000	-18.300001	1020.652039	-0.673750	-0.358750	-1.373750
30.743999	-17.629000	1042.489990	-2.463125	0.857500	1.518125
25.132000	-19.520000	1053.713989	-5.560625	-0.301875	2.918125
15.372000	-38.247002	1066.218994	5.486250	6.138125	-0.581875
8.174000	-5.856000	998.936035	-0.148750	2.165625	1.596875
-6.283000	-24.400000	921.527039	-1.736875	8.531250	2.423750
7.869000	-17.019001	871.140991	-2.493750	1.763125	-1.141875
7.015000	-45.445000	801.052002	-0.651875	6.706875	-3.500000
-17.323999	-40.687000	651.846008	10.381875	0.638750	-11.659375
-1.342000	1.708000	681.919006	-1.207500	-3.215625	-16.690624
-27.267000	16.531000	591.333984	-10.898125	-16.493750	-18.283125
4.819000	45.201000	857.354980	-7.560000	-4.375000	-17.898125
6.649000	-1.830000	873.642029	8.435000	18.235001	-9.524375
18.056000	14.945000	977.463989	3.097500	-9.852500	-13.514375
50.081001	6.161000	1197.307983	42.148750	12.145000	4.191250
-5.429000	2.318000	1231.162964	-13.798750	-13.877500	0.573125
10.675000	22.204000	1280.572998	0.398125	20.286875	6.685000
91.134003	-41.846001	1239.825073	-42.511875	-13.908125	-4.598125
-2.196000	-53.070000	1397.510010	-52.653126	9.743125	-10.976875
-64.171997	-232.531998	1447.407959	-37.016876	0.275625	-12.569375
-126.026001	-240.766998	1532.747070	-2.135000	-9.909375	-13.457500
-34.342999	-188.673004	1405.073975	30.135000	11.571875	-11.865000
10.431000	-105.286003	1268.800049	42.153126	6.881875	-0.761250
-11.956000	-118.645004	1299.848999	23.301250	14.879375	-2.419375
7.686000	-28.304001	1220.000000	4.882500	-23.808750	-11.423125
35.868000	-2.745000	1100.379028	21.468124	-33.700626	0.498750
-8.601000	88.694000	1156.376953	30.371250	-2.016875	15.211875
19.764000	115.350998	1113.738037	25.484375	-46.200001	27.514376
91.500000	113.947998	941.413025	14.140000	-7.647500	34.921249
56.669003	105.469002	702.414978	37.716873	-0.411250	31.136875
62.646999	117.973999	650.442993	25.965626	11.816875	25.549999
63.867001	28.426001	808.189026	6.781250	10.259375	17.158751
54.778000	37.698002	826.671997	-2.318750	47.761875	4.952500
40.748001	12.627000	827.038025	-16.270624	28.875000	-6.772500
37.393002	-9.882000	890.905029	-9.170000	36.920624	-13.155625
7.686000	71.187004	862.845032	-3.784375	23.003750	-12.096875
-16.531000	79.543999	895.296997	-10.360000	-0.223125	-1.916250
-42.700001	15.372000	852.109009	-9.821875	-4.939375	0.826875
-38.612999	45.932999	885.476013	-17.696875	-12.210625	-0.148750
-21.899000	40.199001	882.182007	-19.823126	-9.550625	-3.430000
17.141001	33.367001	990.822998	-17.876249	-17.823750	-9.021250
-5.795000	29.402000	1034.316040	-16.183125	-12.827500	-13.422500
-20.984001	31.598000	1014.613037	-12.845000	-22.351875	-14.686875
45.688999	-13.115000	1149.789062	-0.612500	-4.970000	-5.499375
17.019001	15.494000	1169.614014	-3.268125	-19.333124	-9.415000
20.434999	-2.684000	1045.661987	7.332500	10.828125	-9.769375
56.852001	-18.788000	999.241028	-14.288750	11.646250	-6.698125
15.555000	-68.442001	1095.133057	-17.281250	23.581249	-6.947500
-5.429000	-67.649002	1080.126953	-17.780001	7.336875	-16.047501
-4.758000	-44.285999	1033.949951	-19.897499	12.403125	-27.278126
-13.664001	-69.112999	812.642029	-3.937500	-8.868125	13.658750
-64.355003	-24.705000	936.655029	10.828125	-9.336250	-7.188125
187.209000	-66.673004	897.249023	-5.376875	-10.723125	-0.844375
-29.951000	13.542000	959.468994	10.355625	-12.770625	5.556250
39.040001	-12.627000	970.754028	13.335000	20.689375	-17.600624
101.808998	-34.647999	1012.600037	-6.750625	-15.933750	-6.746250
28.609001	-39.040001	961.726013	-2.843750	11.948125	3.600625
45.567001	-28.792000	1044.015015	10.548125	-9.476250	-1.710625
23.790001	2.684000	1029.375000	2.786875	4.580625	3.478125
72.773003	-1.220000	1108.492065	5.101250	3.548125	2.502500
10.614000	19.276001	1046.454956	-2.708125	-20.873125	-4.462500
43.980999	-31.415001	1012.478027	10.005625	-11.900000	-10.591875
48.312000	-13.481000	1059.082031	13.461875	0.945000	-6.820625
27.816000	-19.703001	1104.039062	-2.874375	-8.325625	-3.320625
36.904999	-18.300001	1085.250977	-5.333125	-2.646875	-5.127500
44.042000	-42.882999	1023.458008	-11.746875	14.196875	-5.547500
7.686000	-14.152000	980.330994	1.417500	-0.660625	-5.018125
99.369003	-40.199001	1006.500000	2.944375	13.396250	-6.693750
50.691002	-5.490000	1007.963989	28.030624	-11.466875	-1.981875
38.917999	37.698002	1077.138062	13.978125	-5.000625	2.668750
44.408001	57.767002	1034.987061	-3.696875	4.484375	-0.437500
48.190002	40.077000	1011.014038	1.010625	8.872500	-5.018125
74.054001	4.209000	1061.827026	-0.761250	-5.306875	-8.999375
85.460999	-39.101002	966.666992	7.459375	-5.171250	-7.971250
107.237999	-4.392000	1108.979980	3.832500	-0.358750	0.940625
56.424999	-8.479000	996.252014	-25.427500	-13.440000	-4.720625
76.920998	-24.156000	964.471008	0.017500	-5.245625	-1.540000
6.344000	-2.318000	1112.640015	1.575000	-8.986250	9.795625
7.259000	43.859001	1055.300049	-17.224375	-5.849375	-1.085000
48.129002	2.806000	1035.474976	-8.050000	9.533125	-4.296250
48.007000	-2.196000	993.140991	1.054375	14.083125	-0.415625
33.549999	5.246000	992.775024	3.316250	7.240625	-3.215625
53.192001	-4.087000	961.908997	2.086875	6.523125	-7.555625
67.222000	-2.867000	989.237000	11.935000	2.170000	-5.630625
62.220001	6.344000	1037.549072	10.281250	1.141875	-6.146875
88.206001	-3.538000	1021.627991	2.541875	7.678125	-4.493125
57.827999	5.124000	1017.846008	2.121875	6.352500	1.684375
43.005001	8.479000	1012.600037	4.125625	8.535625	-1.535625
70.577003	17.019001	1010.648010	4.099375	3.360000	-1.015000
37.576000	19.153999	1019.737000	8.820000	-0.008750	-1.093750
68.014999	9.943000	1036.817017	10.591875	1.290625	-2.012500
37.698002	22.570000	1044.807983	1.890000	-0.595000	0.301875
31.354000	26.291000	1033.462036	-2.445625	3.539375	-3.110625
35.319000	27.450001	1053.104004	-1.627500	-0.310625	-3.819375
33.793999	35.257999	1009.489014	-10.329375	7.065625	-5.153750
35.746002	15.677000	986.492004	-5.880000	1.623125	-8.124375
45.018002	7.198000	995.825012	3.040625	-1.933750	-5.525625
25.620001	35.563000	955.565002	2.900625	8.881250	-0.385000
1.098000	30.256001	951.234009	-2.594375	-1.544375	-3.885000
3.172000	25.742001	991.799011	-5.678750	-15.093750	-7.437500
10.248000	27.267000	1008.268982	-0.380625	-6.553750	-6.868750
10.431000	1.159000	997.838013	-8.876875	-6.177500	-10.495625
74.237000	-20.557001	1013.820007	1.723750	-3.386250	-5.368125
55.021999	30.561001	1045.600952	14.284375	-2.248750	5.263125
70.577003	45.993999	1068.842041	14.721875	-2.603125	2.646875
56.852001	80.336998	1102.514038	6.593125	-0.354375	4.733750
57.157001	69.174004	1053.896973	-5.770625	10.583125	1.964375
48.434002	78.385002	1035.230957	0.704375	6.846875	1.855000
43.310001	55.815002	1064.876953	7.205625	3.613750	-2.130625
45.018002	75.884003	1055.848999	1.736875	4.388125	-0.783125
35.563000	87.718002	1028.032959	-7.284375	8.080625	-0.748125
53.497002	70.455002	1007.720032	-4.563125	6.308750	-4.077500
31.659000	49.715000	983.137024	-3.018750	4.125625	3.093125
-28.426001	76.250000	1000.522034	-3.456250	-2.594375	3.915625
11.163000	36.539001	1011.502014	5.210625	2.323125	-5.197500
10.919000	22.570000	1052.067017	5.582500	-5.311250	1.216250
-3.538000	10.126000	1071.221069	-5.254375	-4.703125	-0.918750
45.872002	-19.825001	1051.578979	-13.842500	8.741250	-0.385000
46.055000	-24.034000	1039.379028	-14.713125	4.991875	11.130000
24.095001	-39.650002	1002.169006	-16.708124	10.066875	14.529375
37.820000	-54.900002	1011.989990	-2.673125	5.656875	16.428125
8.479000	-49.532001	1047.675049	-7.048125	-6.383125	20.676250
-9.699000	-23.607000	991.250000	-12.551875	7.393750	24.272499
-22.448000	-20.618000	978.562012	-13.628125	0.783125	19.000626
9.638000	6.466000	962.824036	-7.310625	-1.658125	19.403126
4.087000	-3.904000	969.717041	9.428125	5.573750	19.705000
26.840000	38.917999	1018.578003	9.432500	-3.933125	18.116875
65.758003	1.342000	1107.150024	-20.234375	-1.640625	-8.146250
129.442001	-111.446999	886.452026	-11.716250	12.906250	19.048750
-77.470001	-39.466999	1010.587036	22.771875	3.823750	26.578125
-17.507000	-35.196999	1049.383057	3.915625	-15.041250	0.708750
18.726999	-4.026000	1009.428040	-8.150625	3.346875	4.217500
-39.223000	16.836000	1043.161011	-9.069375	-6.755000	-9.926875
21.533001	-8.845000	1051.091064	-11.926250	-4.930625	-15.579375
17.202000	-83.326004	1061.461060	-11.195625	-4.860625	-8.015000
-26.413000	-109.007004	1031.875977	-23.143749	-4.768750	-5.683125
-60.878002	-124.378998	959.286011	-17.753750	2.489375	-3.635625
-113.947998	-79.483002	969.595032	5.263125	-10.876250	-2.716875
-147.436996	-76.189003	950.319031	53.598125	-9.353750	-8.347500
-78.140999	-70.882004	1095.316040	28.599375	6.645625	-5.919375
-125.416000	18.056000	911.035034	-4.366250	21.831249	4.799375
48.129002	-32.513000	941.901001	37.174374	13.685000	-18.046875
-1.525000	26.962000	1041.758057	12.687500	1.583750	14.310625
-83.204002	45.750000	1038.219971	13.335000	9.305625	3.766875
56.486000	-31.171000	1056.214966	10.465000	16.743126	-14.065625
56.973999	84.180000	1083.238037	1.627500	3.241875	12.061875
67.954002	47.091999	1017.358032	-4.060000	7.581875	-0.735000
182.024002	57.767002	985.577026	-7.262500	-1.496250	-5.101250
181.475006	96.624001	1000.095032	16.423750	-8.211875	6.260625
179.828003	77.042999	1046.333008	4.213125	-8.085000	-3.626875
229.115997	61.549000	1047.004028	-3.517500	2.030000	-1.246875
176.595001	24.095001	983.015015	-15.588125	8.176875	0.354375
235.704010	-3.843000	1028.276978	1.526875	2.502500	-2.992500
223.382004	19.153999	1085.556030	-0.840000	6.374375	8.155000
201.117004	42.395000	1048.589966	-24.421249	13.921250	1.378125
172.324997	39.345001	950.807007	-21.367500	17.539375	5.206250
131.516006	47.458000	967.338013	-26.538750	2.603125	-2.209375
160.613007	-15.616000	1018.090027	-22.006250	1.225000	-2.765000
149.145004	4.514000	941.596008	-18.322500	13.107500	16.975000
81.801003	-16.653000	885.049011	-6.098750	-7.621250	28.118126
31.659000	-15.128000	871.263000	10.644375	-3.661875	27.571251
-15.433001	-61.854000	975.634033	18.335625	-46.283127	28.371876
-152.317001	-51.728001	952.515015	3.136875	-38.670624	21.393749
-219.477997	-55.815002	966.666992	4.554375	-48.938751	4.633125
-205.447998	-94.062004	1125.876953	18.900000	-53.584999	1.028125
-273.279999	-35.441002	1438.624023	12.061875	-29.601250	7.831250
-171.714996	-55.083000	1211.643066	-45.132500	-2.555000	-9.524375
-103.090004	-95.221001	1017.358032	-40.985001	21.551250	-1.378125
-86.742004	-72.956001	1051.945068	-7.529375	0.223125	5.748750
-144.630997	-49.105000	1151.984985	10.500000	22.176874	8.645000
-133.772995	-73.871002	1105.807983	3.644375	10.005625	-3.880625
-93.390999	17.568001	973.864990	3.561250	44.576874	1.680000
-83.936005	86.315002	886.390991	6.527500	27.177500	-8.085000
-22.448000	-13.420000	1037.244019	4.353125	35.551250	-14.144375
36.112000	11.102000	1035.109009	1.750000	41.829376	-30.121876
131.576996	-41.846001	943.182007	-22.404375	35.525002	-26.586876
107.055000	-54.961002	955.260010	3.766875	11.773125	-11.515000
114.070000	-94.733002	1012.294983	22.504999	23.104376	-12.162500
129.197998	-61.305000	1094.035034	4.795000	-9.865625	-2.021250
96.258003	-109.678001	1043.893066	6.098750	14.533750	0.542500
42.456001	-38.552002	1023.031006	10.482500	-2.471875	12.836250
-45.567001	-28.792000	1000.583008	6.868750	3.692500	9.765000
3.599000	-38.186001	1060.729004	12.328750	-3.701250	7.183750
-90.767998	-8.235000	1031.875977	-3.990000	0.328125	16.660000
-57.218002	-21.472000	1002.291016	-15.933750	-4.860625	1.443750
-6.649000	-36.173000	952.393005	1.089375	-1.868125	11.348750
-58.621002	-10.980000	1009.184021	-4.567500	-17.233126	14.236250
-64.721001	-25.559000	974.475037	-6.273750	-9.931250	4.742500
-10.553000	-26.779001	1017.358032	0.004375	-14.271250	1.172500
-55.998001	-13.847000	1031.692993	-14.761250	-17.425625	3.565625
-1.708000	-33.244999	1017.174988	2.944375	-2.922500	-0.144375
-43.493000	-19.032000	1006.988037	4.965625	-5.420625	0.905625
-15.067000	-44.347000	1034.255005	0.901250	-2.213750	1.968750
-24.095001	-40.260002	1010.098999	-4.681250	3.040625	2.773750
-16.653000	-47.214001	1025.837036	-4.611250	-0.135625	-1.036875
-12.932000	-27.511000	1008.817993	-1.719375	0.953750	-2.611875
-22.387001	-30.012001	1029.557983	-4.816875	2.051875	-2.651250
-14.945000	-46.421001	1000.705017	-7.065625	-0.240625	-3.346875
-32.939999	-59.109001	1006.134033	-2.397500	-2.318750	-3.683750
-32.939999	-59.658001	986.553040	-0.201250	-6.667500	-4.313750
-41.602001	-48.617001	1048.529053	-0.210000	0.297500	-2.563750
-56.852001	-43.920002	994.299988	-5.486250	-8.732500	-1.386875
-89.426003	-54.839001	1019.066040	-2.121875	0.875000	-1.168125
-141.276001	-36.478001	1042.001953	-3.530625	-2.992500	-4.156250
-131.210999	-67.527000	1047.919067	0.223125	0.468125	-3.696875
-155.733002	-70.760002	1027.666992	5.066250	1.141875	-7.940625
-122.854004	-69.235001	1022.238037	19.604376	7.424375	-12.818750
-126.148003	-57.950001	1026.081055	19.805626	15.255625	-11.186875
-59.597000	-34.587002	991.554993	15.627500	1.566250	-17.626875
-93.269005	-3.843000	924.393982	7.157500	-1.185625	-14.713125
-4.087000	61.671001	944.585022	3.688125	-10.136875	-7.061250
82.228004	4.636000	956.541016	14.284375	5.731250	1.570625
172.813004	47.458000	1045.052002	-10.701250	-22.176874	-4.007500
221.857010	46.421001	1072.380005	-9.603125	1.631875	-1.334375
274.927002	-6.649000	1063.352051	-24.014376	-11.230625	-4.208750
313.052002	-18.239000	1002.351990	0.660625	7.179375	-1.404375
310.368011	-54.167999	1121.607056	-0.070000	-8.159375	-0.735000
280.295013	-23.424000	1020.652039	1.973125	12.096875	-0.936250
249.429001	-20.801001	1041.635986	-0.358750	10.517500	3.053750
191.600998	-27.572001	1056.703003	-7.883750	9.174375	3.946250
205.570007	-63.440002	1029.619019	-14.717500	14.306250	7.004375
210.266998	-40.443001	992.470032	-13.028750	25.685625	-0.599375
165.126999	21.716000	967.520996	-22.483126	14.319375	2.406250
92.842003	-45.932999	947.513000	-17.885000	-5.298125	3.298750
-46.848000	-53.497002	908.533997	-21.371876	-26.621876	-0.612500
-155.428009	-105.103004	870.226013	-1.688750	-26.236876	-14.708750
-257.175995	-78.263000	976.609985	2.651250	-28.800625	-18.059999
-268.156006	-119.071999	992.470032	3.176250	-54.276249	-22.194374
-269.315002	-132.065002	1209.203003	6.978125	-29.763124	-15.548750
-290.847992	-192.943008	1075.430054	-9.913750	-55.750626	-6.772500
-294.386017	-161.100998	1173.274048	22.828751	-4.458125	-2.611875
-274.256012	-181.109009	1099.952026	6.006875	7.000000	-8.089375
-208.070999	-120.658005	1121.973022	-0.118125	39.283127	-12.276250
-157.197006	-118.278999	1055.727051	-5.005000	34.409374	-2.253125
-92.537003	-85.217003	945.317017	15.640625	32.383751	5.945625
-43.554001	-80.520004	1006.012024	35.231876	36.168125	15.666875
25.254000	3.172000	984.783997	21.708750	23.848125	18.344376
86.498001	-66.978004	979.355042	19.901875	20.269375	13.111875
115.107002	78.018997	959.895996	-14.035000	7.857500	10.635625
167.322998	-35.806999	997.044983	-6.807500	18.029375	3.959375
190.686005	60.451000	958.614990	-15.898750	-25.987499	-9.100000
219.112000	31.476000	1079.089966	14.481250	13.326250	-9.248750
188.124008	21.472000	1075.796021	-1.596875	-13.628125	-7.953750
110.471001	25.681000	1075.247070	-0.647500	4.143125	-0.660625
59.292000	-11.224000	1021.322998	-9.817500	2.209375	-1.903125
37.393002	-4.453000	1005.707031	-4.611250	5.136250	2.069375
8.418000	-47.580002	1018.517029	-1.268750	8.723750	0.831250
5.734000	-58.255001	1039.500977	-4.445000	-2.152500	-0.761250
-14.213000	-53.558002	1052.615967	-4.033750	3.206875	-1.548750
-10.675000	-24.156000	991.250000	-8.505000	6.238750	-0.857500
-13.908000	-48.799999	1010.160034	-9.086875	5.910625	3.263750
-26.596001	-45.323002	1013.027039	-5.180000	5.481875	5.464375
-22.326000	-62.830002	976.549011	-2.450000	-0.901250	7.459375
-27.267000	-53.375000	1004.914001	7.936250	4.558750	6.238750
-22.691999	-36.783001	1014.369019	3.788750	-4.746875	4.956875
-21.289000	-37.393002	1008.635010	6.601875	1.246875	5.057500
-12.078000	-31.964001	1023.885010	4.808125	-8.680000	5.866875
-10.309000	-42.577999	1038.829956	6.571250	0.411250	4.213125
-13.786000	-44.591000	1033.706055	3.928750	0.656250	3.447500
-17.202000	-19.947001	995.458984	0.253750	7.363125	2.778125
-21.716000	-22.021000	1010.281982	0.035000	-1.566250	4.200000
-18.483000	-32.330002	1039.623047	0.813750	1.207500	4.033750
-23.241001	-33.244999	1002.901001	-1.391250	-1.019375	2.970625
-27.450001	-30.073000	1010.098999	-3.819375	-1.430625	3.106250
-59.902000	-30.866001	1032.852051	-7.476875	-0.310625	3.889375
-119.255005	-47.031002	1008.635010	-10.583125	-1.666875	6.759375
-153.841995	-47.945999	1032.973999	1.303750	1.286250	8.741250
-138.531006	-15.982000	1031.448975	14.494375	-7.280000	6.956250
-60.389999	79.361000	982.710022	24.219999	9.100000	12.691875
-98.881004	25.986000	1044.686035	22.649376	6.321875	5.136250
-127.001999	10.248000	1016.199036	-2.318750	-9.677500	-10.373125
-61.243999	133.162994	940.619995	6.768125	11.445000	-5.700625
-28.609001	28.243000	952.454041	1.806875	-10.941875	5.346250
-23.607000	-73.749001	1014.064026	-1.526875	-20.842501	2.388750
29.829000	-15.677000	989.908020	13.755000	-3.731875	-2.620625
109.312004	-3.355000	980.392029	-7.210000	-31.548124	-7.284375
205.630997	70.028000	1060.790039	-0.240625	-28.494375	-5.958750
263.641998	32.390999	1094.462036	17.587500	-8.977500	-0.393750
309.514008	107.177002	1036.817017	-2.756250	9.673125	-0.017500
303.779999	8.723001	1036.390015	-41.422501	13.833750	-6.483750
317.566010	-26.657000	1039.440063	-45.412498	31.775625	-6.208125
290.360016	-92.292999	1074.332031	-14.070000	33.166874	-7.367500
274.561005	-6.100000	1021.872009	5.306875	20.593124	-1.141875
252.235001	-45.262001	999.302002	12.228125	14.931875	2.410625
216.794006	-2.806000	992.408997	10.775625	36.229374	1.596875
207.766006	-6.954000	929.091003	-1.938125	29.413124	4.799375
111.141998	-29.280001	966.789001	-48.208126	9.581250	-9.905000
-14.335000	-112.667000	839.299011	-53.751251	-13.269375	-13.606250
-105.529999	-120.902000	929.457031	-13.269375	-12.048750	-25.904375
-141.581009	-93.269005	951.966003	4.366250	-30.450001	-13.383125
-256.505005	-59.170002	1024.433960	10.552500	-51.463123	-11.112500
-341.782990	-172.386002	1026.508057	-7.800625	-48.295624	-5.630625
-412.360016	-127.856003	1115.019043	0.406875	-65.695000	-11.405625
-322.994995	-199.104004	1181.203979	4.497500	-58.301250	-5.285000
-292.128998	-206.912003	1174.250000	12.661250	-9.003750	-0.061250
-179.218002	-186.233002	1119.959961	-12.000625	-0.249375	-1.750000
-141.947006	-188.977997	1080.249023	-11.326875	18.751249	2.555000
-120.231003	-193.613998	1060.790039	16.485001	18.685625	-3.451875
-40.443001	-114.557999	1005.096985	36.076248	44.953125	-2.778125
