AccX[mg]	AccY[mg]	AccZ[mg]	GyrX[dps]	GyrY[dps]	GyrZ[dps]	
183.000000	-58.376999	936.777039	0.883750	-2.235625	-3.088750
186.598999	-35.563000	983.564026	0.883750	-2.235625	0.000000
203.251999	-36.600002	1001.254028	-0.188125	-15.837500	-26.254375
228.079010	-29.097000	979.843018	-5.293750	-33.171249	-32.733749
227.895996	-25.559000	973.377014	-9.187500	-19.923750	-14.100625
230.518997	-90.889999	960.932983	-7.000000	-8.605625	10.688125
243.512009	-41.418999	996.557007	10.123750	24.885000	28.131250
243.938995	-47.458000	973.682007	-5.394375	35.581875	9.550625
196.664001	-40.809002	991.005981	-0.971250	17.968124	-5.210625
161.650009	-33.977001	1001.376038	-0.682500	3.784375	-12.516875
180.621002	-36.966000	1000.522034	-0.293125	-4.081875	-11.816875
276.147003	-362.096008	919.880005	-22.876875	-3.010000	-8.876875
205.753006	-384.726990	914.512024	-32.208752	13.138125	20.636875
148.656998	109.556000	789.462036	71.172501	33.569374	43.439377
188.429001	267.240997	381.554993	92.548752	72.471878	22.163750
8.845000	-35.685001	379.175995	-29.356251	49.520626	-3.377500
157.136002	11.651000	1001.864014	-51.673126	-36.421875	-10.723125
183.365997	-100.894005	595.359985	-14.840000	-14.971250	4.029375
242.779999	-198.128006	993.080017	0.599375	56.017502	-45.351250
28.853001	170.800003	950.562988	14.004375	72.253128	-74.654999
82.899002	-81.496002	1015.467041	35.630001	126.056877	-51.983749
-71.125999	55.265999	1162.354980	20.545000	39.466873	-75.473122
-366.000000	197.578995	893.223022	30.550625	-6.453125	-71.767502
-39.406002	65.819000	991.067017	-1.277500	-17.355625	-19.670000
147.376007	69.845001	910.729980	-32.847500	-59.946251	-2.205000
24.034000	79.605003	1279.170044	-7.498750	-89.070625	-0.686875
125.538002	113.459999	1037.182983	28.424376	34.256248	-25.869375
-69.112999	77.470001	945.866028	-8.933750	35.021873	-11.300625
-25.498001	90.279999	1536.833984	8.960000	77.450623	-2.576875
23.241001	237.716995	1141.005005	-0.778750	8.286250	9.821875
17.019001	29.829000	1060.911987	-28.280001	-95.160622	33.416248
10.675000	32.146999	1185.352051	-21.883751	-41.369999	33.363750
206.240997	58.804001	1172.847046	-8.929375	13.181875	19.976250
80.641998	95.343002	1038.890991	-1.356250	4.799375	18.016251
231.921997	187.514008	1046.577026	56.244999	-50.811249	20.610624
283.772003	154.695999	534.726013	-30.808750	38.136875	-3.631250
250.466003	153.598007	959.346985	13.300000	3.263750	5.818750
106.017998	195.932007	758.108032	5.827500	10.972500	22.850624
80.093002	144.020996	801.418030	5.508125	9.165625	25.173750
-59.414001	58.011002	932.140991	7.275625	39.134377	26.862499
-97.294998	92.170998	709.369019	7.065625	-42.192501	6.571250
-23.180000	71.065002	1046.638062	29.859375	-59.863125	-14.048125
-91.439003	5.002000	966.239990	6.934375	3.906875	4.440625
-177.205002	-12.688000	1012.721985	-16.314375	14.122500	-4.803750
-89.364998	-115.960999	1147.287964	-10.880625	-44.572498	-6.860000
51.605999	-109.128998	1105.747070	-26.245625	20.724375	-46.506248
-71.980003	-129.686005	1061.583008	-15.242500	38.023125	-39.318127
-68.259003	-215.268997	1094.096069	16.747499	-4.886875	-33.451248
-86.986000	-104.493004	1251.171021	-0.249375	-25.698750	-20.326250
-32.390999	-113.764999	1013.942017	-40.954376	13.352500	-24.202499
4.697000	-205.692001	952.575989	-34.829376	-3.386250	-21.568750
58.621002	-82.594002	1030.167969	-20.151251	-28.437500	-13.580000
99.125000	-90.219002	982.710022	-7.284375	-37.992500	-6.335000
159.942001	-103.151001	1120.447998	14.980000	-16.034374	0.166250
161.283997	-64.903999	922.015015	0.533750	-10.784375	2.441250
135.725006	23.180000	1049.870972	3.058125	21.476875	-1.334375
121.267998	-24.888000	1072.197021	-11.816875	-14.730625	6.370000
130.723007	-32.025002	1075.613037	-5.328750	10.425625	17.246250
39.650002	-6.832000	1045.661987	-8.382500	34.321877	31.272499
51.118000	-33.244999	981.489990	-3.333750	4.440625	49.074375
66.978004	-44.591000	1019.859009	7.345625	9.957500	51.695000
205.692001	-42.456001	1127.645996	3.355625	-9.878750	43.986252
209.779007	-23.851000	1012.783020	4.746875	-5.950000	28.826876
174.094009	21.594000	1039.744995	-0.966875	-9.725625	6.510000
108.702003	16.409000	1023.092041	-15.426250	25.278749	18.090626
99.979004	-39.101002	1008.085999	-3.740625	43.351875	29.347500
80.641998	-26.108000	1034.560059	9.550625	65.804375	33.529999
36.478001	-9.516000	1023.763000	8.898750	52.469376	27.278126
-18.726999	1.708000	1026.264038	-5.613125	62.470627	12.573750
-103.028999	27.023001	970.083008	-8.356250	19.403126	-2.786875
-58.560001	-74.359001	928.725037	-28.848749	-15.225000	-22.990625
7.991000	-34.221001	981.184998	-25.191250	-11.926250	-14.087500
-64.111000	-62.037003	963.921997	-9.008125	13.234375	1.561875
-40.260002	-94.672005	1030.229004	7.813750	-21.555626	-9.848125
-27.205999	-111.630005	994.544006	8.120000	6.523125	0.883750
-116.693001	-69.905998	996.739990	13.930000	-2.170000	-12.547500
-82.654999	-49.471001	1028.216064	18.357500	-22.076250	-30.091249
-23.668001	-61.549000	990.945007	17.841249	-25.663750	-44.953125
123.037003	-63.806000	1160.829956	9.301250	-18.808125	-36.452499
95.343002	-43.859001	1029.497070	1.640625	0.564375	-13.488125
84.119003	-25.193001	996.496033	1.920625	22.548750	7.713125
31.415001	-42.821999	946.963989	3.123750	42.017502	22.977501
-60.878002	-15.433001	1008.513000	1.955625	21.673750	15.299375
-108.335999	-34.526001	976.609985	-0.485625	-36.356251	6.361250
-75.762001	-35.990002	1082.261963	9.174375	-48.505627	6.286875
-19.032000	-37.088001	1027.057007	11.418750	-6.785625	-2.275000
-47.153000	-73.321999	984.479004	3.351250	15.159375	-13.759375
-12.749001	-23.607000	930.067017	0.866250	-4.445000	-25.112499
-37.881001	-39.894001	975.877991	0.210000	-24.819374	-30.463125
7.930000	-26.474001	964.348999	-4.086250	-22.448126	-33.044376
-11.834001	-6.527000	964.531982	1.868125	-27.492500	-41.334999
35.990002	-21.472000	1046.454956	20.496876	-20.444374	-51.458752
47.275002	22.570000	1153.265991	-8.102500	-48.912498	-11.130000
295.850006	-225.822006	137.067001	-26.928125	-107.795624	4.830000
99.247002	-4.819000	1032.729980	-34.864376	-33.166874	12.796875
199.897003	-72.773003	929.700989	-32.703125	-1.465625	7.332500
196.419998	-61.732002	1069.573975	-21.503124	17.696875	0.735000
247.843002	-153.110001	981.673035	-19.530001	38.823750	13.177500
171.044006	-154.208008	1090.557983	-17.955000	52.136875	39.488750
-4.636000	-67.649002	1035.963013	-19.158125	5.285000	27.015625
71.858002	-85.643997	1000.156006	-7.590625	17.871876	7.061250
122.244003	-150.975006	974.231018	-2.016875	21.336876	12.446875
259.981995	-154.818008	760.731018	20.860001	44.476250	27.120625
-202.459000	-76.127998	1061.094971	12.149375	35.621250	19.661249
-33.062000	-67.282997	894.565002	11.230625	35.783127	-14.021875
-35.746002	-151.707001	587.369019	20.798750	38.670624	-35.376251
-27.755001	14.884000	942.450012	24.863125	-4.186875	-31.968124
138.835999	8.479000	1034.560059	19.083750	-21.245001	-9.305625
180.011002	17.507000	1022.421021	6.348125	14.717500	9.537500
-128.587997	48.190002	952.880981	6.011250	-23.524376	-3.600625
112.789001	66.063004	1011.867981	8.168125	-34.553749	-13.855625
15.982000	76.737999	1008.757019	8.820000	-0.113750	-13.313125
44.529999	37.271000	976.000000	22.889999	-0.888125	-19.486250
-16.836000	55.449001	1052.005981	31.998751	-4.414375	-35.879375
77.348000	63.379002	1045.479004	19.053125	12.285000	-32.313751
-14.884000	-15.738000	1030.534058	14.765625	8.933750	-29.330000
33.549999	-28.365000	1094.218018	13.890625	-6.899375	-33.210625
12.688000	-43.675999	1064.083984	9.305625	7.035000	-29.216249
-43.980999	-24.705000	937.814026	17.399376	2.511250	-42.774376
34.403999	8.662000	1042.612061	5.560625	-3.920000	-32.418751
23.485001	-19.764000	1002.351990	5.748750	6.107500	-19.363750
4.636000	-9.272000	1034.316040	2.493750	21.043751	-10.723125
3.416000	28.121000	1041.818970	9.261875	8.194375	-11.011875
34.526001	71.125999	1042.734009	-0.350000	10.823750	-0.052500
-45.262001	67.587997	976.244019	-7.962500	16.611876	9.126250
-65.879997	92.903000	986.065002	-6.846875	7.240625	11.738125
-54.778000	90.402000	997.716003	-10.644375	2.870000	16.690624
-42.212002	62.159000	1013.332031	-0.214375	0.087500	9.760625
-25.010000	73.688004	1018.028992	4.554375	-2.200625	1.487500
-1.281000	36.904999	1045.174072	7.433125	-5.171250	-8.365000
11.590000	78.873001	991.311035	-7.284375	-7.595000	-2.546250
16.775000	51.910999	1037.122070	-10.963750	-3.898125	6.536250
-16.469999	53.313999	987.223999	-13.597500	16.979376	17.198126
-74.724998	23.912001	968.436035	-8.658125	17.198126	17.360001
-65.209000	10.370000	1017.236023	-5.018125	9.025625	15.421875
-79.422005	21.106001	985.882019	-10.053750	12.005000	14.590625
-103.395004	19.642000	975.572998	-6.531875	3.644375	8.001875
-78.507004	7.015000	1019.676025	-9.038750	-4.628750	1.938125
-116.083000	44.713001	976.793030	-7.433125	-9.699375	-4.130000
-76.311005	45.201000	997.655029	6.776875	-1.763125	-5.140625
-47.945999	53.131001	1033.156982	8.544375	-10.508750	-6.960625
-21.837999	58.255001	1027.728027	3.653125	-3.377500	-3.333750
-17.507000	45.139999	950.014038	-6.448750	6.724375	3.368750
-48.434002	7.991000	943.121033	-10.320625	1.732500	10.745000
-38.247002	11.285000	983.137024	-1.190000	4.939375	10.893750
-102.601997	49.959000	954.040039	5.626250	5.696250	14.616875
-71.858002	12.749001	989.237000	8.968750	-1.894375	10.670625
-37.027000	35.806999	1015.772034	6.899375	-26.521250	7.271250
0.610000	64.660004	1055.848999	7.301875	-27.934376	2.371250
-6.405000	111.751999	1059.997070	11.615625	-44.747501	-1.942500
60.938999	108.335999	1009.184021	9.314375	-35.240623	-0.612500
74.419998	73.931999	1052.494019	5.936875	-19.403126	-4.405625
115.778000	87.230003	1039.500977	7.183750	-18.694374	-6.168750
138.897003	52.338001	1020.286011	8.855000	-7.450625	-4.501875
163.175003	104.981003	1042.916992	5.853750	22.618750	-3.263750
91.195000	107.237999	965.752014	6.702500	14.288750	-2.909375
158.050995	139.811996	1051.945068	10.526250	8.890000	-6.702500
90.829002	157.380005	1060.607056	4.226250	17.613750	-10.031875
137.738007	185.928009	1079.089966	4.786250	-13.457500	-16.078125
110.471001	154.574005	1126.426025	1.859375	8.688750	-10.215625
93.330002	58.072002	987.712036	2.791250	-8.185625	-8.960000
65.696999	30.439001	959.103027	-4.165000	-33.691875	-6.663125
154.208008	112.544998	937.387024	-3.565625	-35.940624	-6.864375
159.149002	85.339005	986.674988	-5.149375	-9.336250	-2.747500
143.227997	40.504002	987.955994	-14.301875	22.238125	3.500000
104.493004	32.025002	938.302002	-10.504375	11.720625	3.058125
140.848999	22.387001	967.338013	-0.056875	5.709375	0.161875
86.498001	96.501999	1006.439026	-0.603750	5.862500	-9.638125
91.195000	82.106003	1043.282959	-5.127500	6.553750	-12.573750
83.875000	145.423996	1016.199036	-8.286250	19.236876	-8.881250
66.489998	74.969002	1006.927002	-13.409375	22.575001	3.648750
35.380001	69.479004	1044.990967	9.909375	16.520000	-7.936250
52.704002	145.912003	992.165039	22.863750	7.000000	-12.197500
23.912001	106.689003	980.575012	10.583125	2.756250	-4.729375
32.269001	75.274002	956.663025	4.252500	2.165625	-2.664375
46.360001	25.254000	954.406006	1.684375	-7.070000	0.630000
6.649000	-141.520004	961.970032	8.780625	-6.461875	4.541250
-0.061000	-250.710007	964.837036	12.862500	-16.279375	31.066875
94.183998	-209.413010	980.757996	26.691875	-22.391251	23.625000
62.830002	-70.150002	998.509033	33.490623	-20.965000	29.968750
105.408005	-18.849001	1025.898071	23.410625	-0.332500	40.254375
161.650009	26.962000	1075.490967	4.991875	9.156875	42.490002
200.628998	86.742004	1058.593994	-10.688125	-4.655000	48.260624
307.806000	54.778000	1132.648071	-8.968750	4.458125	59.456249
177.083008	116.632004	1063.046997	-3.482500	18.313749	55.566875
218.867996	173.179001	1224.208984	-22.264376	18.064375	47.652500
318.847015	-72.651001	949.892029	-47.547501	39.396873	60.226250
197.822998	-126.819000	1069.329956	-31.836876	31.031876	67.510628
244.122009	-5.612000	951.905029	-7.030625	34.575626	62.728748
147.009995	239.363998	835.882996	20.842501	56.498749	51.388748
198.188995	280.661011	788.486023	5.306875	8.478750	62.986874
73.321999	523.013977	1015.101013	16.379999	-15.141875	43.680000
-52.582001	474.092010	881.999023	3.456250	-33.328751	55.798752
117.120003	334.279999	1036.755981	-17.412500	-27.960625	47.438126
-16.042999	355.813019	959.286011	-10.075625	-22.693125	24.027500
46.970001	338.489014	1076.223022	5.687500	-28.065624	-9.795625
132.919006	158.904999	998.936035	-21.975624	1.990625	8.986250
210.938004	120.474998	1114.775024	-6.908125	-17.495625	1.925000
124.013000	26.108000	990.762024	-0.931875	15.382500	-2.143750
114.619003	-11.651000	1151.375000	3.430000	-12.866875	-16.165625
145.423996	113.947998	1312.902954	1.452500	-11.563125	-20.584375
155.854996	124.440002	1234.151978	-25.567499	-5.726875	-14.113750
201.788010	260.835999	1445.151001	-18.930626	6.216875	-6.527500
103.821999	154.818008	1370.060059	-17.368750	54.923752	-13.024375
58.072002	240.035004	1272.947998	-2.047500	33.455624	-27.181875
65.209000	70.760002	1257.270996	-22.194374	76.151253	-16.441250
91.134003	-6.344000	1264.224976	-2.506875	67.794998	-5.906250
28.548000	-96.989998	1120.692017	8.890000	80.259377	-14.625625
83.997002	-57.035000	1046.577026	21.778749	68.547501	-39.685623
2.806000	-145.973007	944.585022	5.346250	85.780624	-21.651875
-106.262001	-133.834000	824.171021	-3.185000	69.168747	-15.238125
-172.264008	-134.322006	754.875000	1.955625	66.806252	-17.268126
-91.561005	-109.495003	780.251038	11.239375	47.385624	-19.512501
-278.037994	-54.716999	674.233032	18.720625	41.426876	-13.470625
-303.414001	29.585001	597.494995	5.184375	34.628124	-9.743125
-345.687012	-61.366001	534.237976	9.778125	31.416876	-10.885000
-378.444000	19.459000	624.762024	0.341250	20.960625	-20.912500
-386.434998	61.122002	748.958008	12.180000	18.414375	-15.456875
-418.216003	-29.524000	603.838989	10.241875	15.513750	-9.060625
-392.657013	36.660999	613.111023	-3.294375	-1.360625	-10.040625
-294.691010	16.592001	679.845032	-2.476250	-3.841250	-14.826875
-275.537018	80.520004	545.035034	-3.071250	-14.293125	-14.126875
-168.481995	96.624001	577.669983	1.592500	-21.752501	-14.144375
-337.451996	80.641998	475.251007	11.221875	-27.702499	-3.049375
-245.891006	203.313004	522.281982	27.391874	-86.800003	-22.299376
-39.833000	182.328995	832.040039	-6.339375	-76.321877	5.407500
-117.973999	-101.503998	857.354980	-11.755625	-106.294998	0.713125
142.740005	10.553000	985.820984	7.275625	-107.852501	-50.824375
32.085999	-36.355999	1115.629028	14.533750	-91.564377	-51.213749
267.972992	-83.447998	907.252991	13.566875	-93.747498	-36.019375
268.522003	217.098999	1383.846069	15.369375	-107.625000	-38.425625
242.719009	-51.423000	1177.360962	-1.771875	-45.373123	-1.478750
188.917007	-35.868000	1281.854004	-1.281875	-21.236250	-4.217500
144.570007	-6.222000	1363.593994	0.608125	-32.103748	-26.473125
155.306000	-0.671000	1433.805054	-2.139375	5.425000	-27.895000
80.703003	11.468000	1294.420044	-21.070000	-3.263750	-21.656250
97.844002	-102.906998	1254.708984	-44.869999	-13.807500	-21.774376
160.063995	-131.210999	1157.536011	-39.860626	-17.237499	-32.825626
179.645004	-155.367004	1028.399048	-20.833750	-16.419374	-18.698750
195.322006	-165.005005	1103.368042	-1.421875	19.963125	-8.723750
151.828995	-160.247009	1026.264038	11.746875	25.366249	-6.807500
134.688004	-204.716003	977.220032	12.621875	16.209375	0.205625
166.529999	-242.169998	927.627014	13.199375	15.316875	6.090000
211.365005	-202.703003	988.200012	10.084375	15.820000	7.590625
205.020996	-168.908997	1072.928955	-5.538750	30.327499	25.208750
130.966995	-238.205002	947.085999	-2.283750	32.930626	38.841251
35.257999	-202.214996	1028.643066	3.416875	22.741249	23.078125
185.318008	-47.214001	1114.409058	-4.515000	9.848125	25.379375
110.836998	-138.348007	942.572021	-1.570625	13.063750	56.975624
243.695007	-167.872009	1124.229980	-3.871875	-7.879375	64.540001
188.063004	17.934000	1041.270020	2.126250	22.194374	57.168125
39.589001	21.410999	916.708008	2.848125	33.245625	58.782501
161.040009	178.363998	952.210022	-1.159375	21.770000	26.433750
71.796997	238.998001	952.332031	4.007500	-12.306875	34.816250
39.528000	292.373016	971.913025	-6.733125	-38.346874	39.370625
62.769001	298.106995	914.817017	-14.030625	-31.806250	37.760624
4.819000	299.876007	1048.285034	-19.630625	-11.978750	43.115623
73.139000	148.169006	1030.290039	-14.529375	-9.428125	29.754375
34.221001	285.601990	1117.458984	2.375625	-1.566250	10.889375
99.125000	172.507996	1094.035034	6.514375	-14.389375	9.975000
108.153000	177.083008	1023.397034	3.237500	-6.020000	-0.993125
99.552002	82.228004	1153.754028	0.857500	7.743750	7.520625
19.642000	16.104000	1152.900024	-10.268125	-21.835625	-0.411250
185.318008	13.298000	1280.084961	-11.781875	-49.717499	-11.501875
124.440002	-36.234001	1307.962036	-31.639999	-1.710625	12.906250
25.193001	-103.578003	1207.860962	-6.549375	-21.634375	1.876875
255.346008	30.439001	1338.156982	20.593124	-30.108749	-14.616875
223.382004	95.953003	1269.471069	11.226250	24.513124	2.375625
13.603000	125.293999	1274.961060	16.209375	46.480000	-18.440624
207.095001	115.229004	1283.989014	-18.974375	41.868752	-8.833125
85.034004	-28.792000	1259.711060	-29.920626	49.756874	37.821877
260.470001	-177.753998	1251.415039	-11.283125	68.289375	25.729376
17.750999	-181.169998	1079.578003	5.044375	74.186874	27.829374
-20.679001	-189.649002	872.666016	23.222500	94.885002	-6.483750
-72.346001	8.540000	784.765015	16.292500	70.376251	-11.151875
116.693001	-228.872009	831.429993	18.322500	81.983124	13.593125
-174.399002	-198.494003	528.320984	-0.905625	92.338753	12.289375
-305.915009	-98.881004	724.009033	8.448125	66.486877	-17.552500
-143.533005	-129.320007	618.356995	19.376875	39.703125	-15.500625
-442.006012	5.490000	507.398010	6.606250	33.468750	-6.063750
-329.705017	-5.002000	489.403015	15.041250	9.966250	8.828750
-381.250000	-23.302000	649.955017	12.206250	2.935625	-8.238125
-331.778992	16.653000	653.005005	13.523125	2.191875	-24.850000
-352.335999	72.651001	687.897034	3.653125	-3.745000	-20.610624
-293.166016	79.483002	681.431030	6.111875	-13.256250	-17.390625
-295.239990	142.496002	674.233032	0.310625	-26.635000	-2.629375
-343.552002	68.990997	753.716003	2.940000	-32.733749	-0.240625
-250.710007	28.731001	793.793030	16.305626	-41.142502	1.846250
-197.457001	60.146000	754.020996	29.548750	-48.260624	-15.925000
-32.085999	80.581001	863.820984	35.345627	-53.790627	-28.236250
-212.462997	196.359009	768.356018	5.831875	-48.133751	-23.130625
-62.952000	-48.983002	837.835022	-4.532500	-47.136250	-16.830626
-164.761002	115.595001	1038.463989	-11.462500	-67.235001	-14.949375
-68.747002	-122.305000	1074.270996	-3.548125	-62.033127	-23.638124
-104.554001	-101.687004	1000.583008	-16.848125	-54.652500	-17.631250
-73.444000	-90.524002	1202.797974	-14.437500	-71.959999	-31.491249
146.949005	-200.324005	1132.343018	-18.620001	-55.361252	-17.399376
-80.093002	-62.220001	1017.419006	-30.152500	-40.652500	-20.085625
50.202999	-113.094002	1065.303955	-36.330002	-78.684372	-42.096249
175.740997	-151.828995	1327.786987	5.468750	12.215000	-12.998125
218.380005	-213.134003	1250.500000	-16.397499	-15.216250	-1.465625
105.286003	-71.736000	1227.015015	-24.290001	-29.627501	-2.913750
141.459000	-149.694000	1211.703979	-12.836250	-23.821875	-13.378750
151.585007	-88.450005	1158.207031	10.548125	-23.568125	-31.005625
193.492004	-129.380997	1234.030029	18.125626	-9.174375	-27.965000
171.104996	-113.094002	1196.393066	4.156250	3.071250	-24.128124
153.964005	-116.265999	1112.213013	5.070625	7.551250	-19.105625
190.869003	-135.785995	1066.524048	4.173750	4.685625	-4.917500
178.669006	-207.766006	1009.489014	5.175625	14.730625	0.354375
186.843002	-230.641006	1030.594971	14.196875	19.770624	6.960625
152.500000	-242.719009	951.356018	15.802500	37.366875	7.122500
115.107002	-222.100998	958.859009	24.644375	29.981874	7.083125
112.606003	-245.158997	1004.914001	15.391250	47.534374	13.076875
136.212997	-209.901001	992.408997	0.433125	32.169376	17.963751
