AccX[mg]	AccY[mg]	AccZ[mg]	GyrX[dps]	GyrY[dps]	GyrZ[dps]	
-4.514000	-20.313000	1020.103027	-4.690000	-2.384375	-4.563125
2.013000	-2.318000	1016.138000	4.471250	-4.471250	-5.665625
17.446001	6.161000	1011.624023	4.746875	-5.683125	-4.287500
22.875000	3.172000	1015.345032	-4.348750	-1.015000	0.573125
22.448000	-7.015000	1020.103027	-6.514375	3.670625	4.602500
8.052000	-15.067000	1018.455994	0.043750	10.316250	8.802500
-4.819000	-7.015000	1015.650024	1.583750	9.511250	8.378125
6.100000	-3.477000	1011.502014	-2.393125	2.655625	4.917500
4.148000	-6.588000	1018.517029	-2.025625	3.311875	5.831875
-2.379000	-10.492001	1017.358032	1.343125	4.838750	6.247500
-12.139000	-10.126000	1011.929016	-0.586250	0.148750	0.266875
-0.244000	-9.028000	1015.345032	0.026250	1.653750	-1.281875
3.477000	-0.915000	1010.038025	0.056875	5.293750	-0.774375
-14.030000	0.366000	1014.369019	-1.128750	4.221875	-1.610000
-14.762000	-7.137000	1015.893982	-1.001875	-0.739375	-4.160625
-12.932000	-12.078000	1021.811035	0.525000	-0.131250	-3.228750
-9.943000	-4.209000	1015.223022	0.345625	2.183125	-0.962500
-10.980000	-2.806000	1017.601990	-1.111250	4.309375	1.592500
-16.531000	-4.758000	1014.674011	-0.923125	6.855625	5.083750
-14.579000	-13.542000	1017.053040	1.474375	-5.197500	0.231875
-11.407001	-1.708000	1015.406006	2.161250	-1.872500	1.019375
-12.200000	-2.806000	1016.869995	-0.752500	2.655625	0.883750
-11.224000	-3.172000	1010.708984	-2.603125	3.045000	-1.452500
-15.006001	-8.418000	1013.637024	0.997500	3.150000	-2.616250
-26.413000	-3.965000	1016.809021	1.981875	-4.939375	-7.533750
-1.647000	0.793000	1013.697998	0.380625	-12.460000	-11.130000
2.379000	-6.405000	1004.609009	4.042500	1.338750	-5.381250
-3.233000	3.477000	1013.393005	0.468125	16.515625	0.595000
-46.177002	-14.396000	1008.879028	-2.830625	13.405000	0.945000
-41.418999	-0.488000	1017.174988	5.661250	-5.005000	1.706250
-13.664001	1.220000	1015.040039	3.167500	-10.893750	2.078125
-19.153999	-3.965000	1015.406006	-3.605000	-7.669375	2.191875
-19.032000	9.394000	1015.528015	-2.905000	-1.955625	1.618750
-22.448000	0.061000	1016.504028	2.091250	1.973125	0.205625
-23.424000	0.488000	1014.552002	2.305625	3.049375	-1.894375
-12.322001	11.712000	1043.343994	-1.229375	4.038125	-2.935625
-30.378000	9.760000	1016.687012	-3.696875	4.086250	-3.058125
-34.952999	-2.440000	1018.882996	2.174375	2.782500	-1.500625
-29.951000	3.965000	1011.684998	3.381875	2.782500	-1.041250
-12.078000	16.958000	1005.585022	2.423750	1.308125	-1.960000
-29.524000	11.712000	1015.893982	-0.546875	-1.001875	-2.813125
36.904999	145.606995	998.936035	4.178125	-6.623750	-30.940001
-34.952999	-158.660995	1002.413025	-10.390625	6.396250	-31.084375
-36.844002	51.789001	1066.890015	69.264999	8.286250	-59.005627
-25.132000	-65.696999	1065.060059	38.631248	-37.791248	-110.858124
-11.346000	-3.050000	1053.042969	-7.490000	-25.991875	-119.818123
-62.708000	108.519005	984.356995	-6.514375	13.601875	-59.941875
-168.542999	-38.735001	1058.593994	-31.920000	-31.745001	-71.522499
-20.923000	82.594002	1032.669067	-3.920000	-61.136250	-23.944374
172.447006	-31.659000	1023.031006	10.500000	-58.428123	4.908750
4.026000	138.225998	1099.586060	17.276875	-6.680625	20.186251
152.317001	17.263000	912.804016	24.692499	-16.073750	32.943748
76.127998	9.455000	1206.092041	12.425000	-15.124375	19.276251
246.561996	58.865002	917.013000	-13.899375	-4.414375	13.033125
267.240997	86.986000	1071.891968	-12.600000	4.694375	4.475625
190.563995	155.001007	1117.520020	-17.793125	51.218124	2.270625
12.139000	106.322998	1079.516968	-1.890000	88.488747	16.043125
86.375999	101.748001	1171.443970	-15.076250	64.557503	7.227500
-86.863998	60.329002	862.052002	-12.893125	-5.026875	8.837500
34.282001	13.786000	1029.192017	-9.524375	-27.024376	4.038125
-2.623000	-129.320007	1127.951050	-15.391250	47.394375	9.590000
-519.903015	-114.436005	633.668030	-3.749375	51.095627	4.060000
-124.867004	98.576004	890.661011	37.292500	-62.531876	-5.578125
-88.389000	77.409004	988.992981	45.390625	-112.756874	-10.342500
10.187000	88.206001	896.212036	15.325625	-71.736877	-1.006250
-22.936001	60.084999	829.539001	22.338751	-4.081875	-12.411875
-32.025002	-11.041000	987.895020	28.783125	-22.172501	-8.395625
-4.758000	30.866001	1031.388062	-4.178125	-3.683750	-15.540000
5.429000	-27.267000	969.778015	2.441250	9.568125	-12.013750
-36.904999	-36.295002	1151.313965	-3.561250	10.924375	-3.583125
-43.980999	2.867000	1054.933960	-13.435625	27.461876	-2.362500
-39.466999	-72.163002	1011.319031	1.093750	3.832500	0.332500
-0.427000	-7.930000	1286.734009	-5.547500	5.875625	-2.528750
-27.023001	-6.832000	1077.198975	-14.844375	14.538125	-3.666250
9.638000	-22.387001	1120.020996	11.248125	-24.460625	-15.780625
49.105000	-9.394000	984.601013	1.636250	-20.295626	-8.277500
64.293999	-89.914001	911.156982	-11.786250	14.315000	2.406250
-17.323999	-63.195999	975.572998	-14.555625	26.306875	-15.662500
-20.618000	-19.764000	925.247986	-18.869375	25.650625	-15.605625
5.490000	-38.674000	911.340027	-24.403749	-11.830000	0.406875
57.767002	-104.676003	999.546021	-10.714375	7.109375	15.833125
47.885002	-85.583000	986.004028	0.783125	2.786875	18.773125
39.833000	-50.447002	1038.036987	7.700000	-12.831875	4.694375
70.089005	-22.143000	988.932007	7.113750	-34.299999	-7.376250
45.688999	2.257000	1073.416992	0.205625	-6.680625	-9.235625
32.879002	-6.771000	1008.330017	-13.470625	14.100625	-5.460000
23.729000	-11.773000	937.020996	-12.333125	7.643125	-7.214375
71.248001	31.110001	981.246033	-1.496250	-9.016875	-10.762500
-10.858000	3.843000	1099.890991	15.448125	21.056875	-9.419375
-36.539001	44.103001	1057.191040	10.968125	2.152500	-14.122500
26.718000	65.941002	1073.112061	4.309375	-42.984375	-14.520625
112.423004	34.526001	1037.061035	-8.277500	-33.149376	-5.446875
66.734001	5.917000	1032.608032	-9.931250	-9.961875	-10.023125
119.316002	-5.673000	1047.858032	1.907500	-10.552500	-9.944375
87.230003	36.722000	1042.978027	3.198125	4.830000	-6.846875
66.184998	52.459999	985.699036	10.552500	29.106874	-5.171250
85.948997	61.427002	1013.697998	14.336875	19.114374	5.140625
-17.507000	5.063000	1019.005005	8.894375	24.084375	6.860000
3.965000	48.068001	984.906006	11.291875	29.461250	9.498125
-35.196999	50.569000	991.067017	3.290000	30.795626	10.180625
-86.375999	70.089005	982.283020	3.465000	13.107500	4.781875
-18.971001	44.225002	1026.264038	1.141875	-12.184375	2.485000
0.183000	41.418999	967.033020	1.596875	-25.584999	20.221251
15.616000	43.066002	1042.734009	4.576250	-19.950001	19.424999
-8.235000	34.465000	963.678040	5.906250	4.563125	21.026251
40.138000	17.690001	981.612000	3.395000	1.903125	15.028125
47.885002	71.553001	981.002014	-4.939375	-23.651251	17.136875
136.518005	2.989000	974.596985	-20.667500	-18.003124	19.263124
43.431999	13.359000	1047.004028	-39.011875	-27.256250	24.259375
94.367004	-19.276001	1044.320068	-24.373125	-31.447500	36.404373
153.231995	-64.781998	967.825989	-3.228750	-16.244375	25.978750
185.806000	-109.373001	1075.430054	13.737500	19.241249	34.864376
130.113007	-44.225002	1031.021973	8.478750	39.011875	27.934376
150.242996	-34.952999	1053.896973	-0.266875	6.759375	25.007500
141.947006	-80.520004	1050.297974	-6.339375	10.132500	9.817500
98.027000	-69.905998	968.679993	-7.266875	0.087500	-7.564375
230.763000	-23.790001	913.718994	3.893750	-22.855000	-13.593125
197.029999	-28.304001	1054.446045	12.271875	-26.976250	-10.263750
208.253998	-3.111000	1090.740967	2.380000	16.935625	9.095625
104.249001	-35.257999	973.132996	8.828750	41.160000	12.127500
40.260002	6.222000	1077.748047	12.495000	43.439377	1.408750
24.156000	-5.002000	1007.536987	0.962500	39.029373	0.538125
-31.537001	10.980000	1022.604004	11.108125	7.634375	-6.995625
71.187004	52.948002	1068.354004	17.014376	-7.144375	-6.571250
77.409004	25.193001	1003.083984	11.506250	-15.426250	-1.855000
120.048004	90.219002	1019.187988	4.418750	-7.258125	4.628750
114.131004	57.584000	1036.268066	-8.216250	23.305626	12.950000
23.729000	37.453999	902.861023	-8.395625	37.161251	14.319375
-86.498001	16.287001	1021.750000	4.506250	31.219999	-16.953125
61.671001	66.306999	1000.705017	0.223125	-6.195000	-23.362499
37.881001	13.847000	957.578003	0.835625	-2.288125	-13.304375
29.341000	48.861000	950.684998	1.855000	-6.816250	-22.802500
34.831001	31.720001	1037.182983	-9.887500	-26.678749	-13.352500
3.050000	-4.514000	1053.592041	-21.131250	-24.920000	-13.549375
34.526001	-3.660000	1005.768005	-8.925000	-10.710000	-9.095625
13.237000	30.073000	1019.676025	5.993750	-0.980000	-13.265000
-3.782000	85.460999	1129.354004	11.668125	-1.960000	-18.348749
114.375000	98.697998	984.906006	-5.989375	-6.938750	-10.867500
133.406998	-21.045000	957.882996	-8.373750	-12.131875	-3.823750
208.193008	-3.294000	997.533020	21.008751	-9.170000	-11.641875
119.743004	-40.687000	1066.097046	15.745625	2.681875	-9.091250
60.695000	71.675003	969.046021	12.005000	4.326875	-15.697500
139.568008	66.184998	1005.707031	18.182501	-7.262500	-11.156250
104.554001	82.472000	985.393982	15.190000	5.149375	-3.924375
112.911003	115.167999	1053.286987	-7.861875	-0.328125	0.017500
50.142002	43.493000	1092.815063	-32.917500	-16.559376	5.818750
128.832001	-39.161999	1035.230957	-21.809376	-9.961875	0.787500
69.540001	58.376999	1034.682007	-3.206875	-25.200001	-11.760000
76.432999	74.054001	1028.826050	6.256250	-33.547501	-15.163750
123.464005	-39.466999	998.082031	-5.481875	48.549374	-4.431875
96.806999	-40.382000	926.041016	4.353125	28.091875	2.611875
78.933998	-12.078000	926.101990	13.720000	11.808125	0.415625
45.262001	-16.958000	960.200989	16.524376	19.945625	-3.998750
19.580999	36.295002	1005.768005	1.824375	27.750626	-3.084375
7.015000	46.970001	1017.480042	-0.280000	-1.299375	-0.144375
33.184002	27.572001	1034.682007	5.831875	3.115000	8.697500
27.145000	15.677000	1021.384033	5.674375	16.721251	9.340625
38.430000	26.230000	1018.212036	-6.488125	2.576875	4.930625
41.174999	0.000000	1026.751953	-17.478125	13.580000	-0.035000
25.010000	-21.533001	1040.171997	-13.908125	11.694375	2.248750
8.052000	-79.605003	1088.728027	-15.006250	16.931250	6.807500
-40.869999	2.257000	967.520996	-7.748125	5.140625	-2.380000
-64.843002	108.335999	903.288025	5.105625	-9.021250	-10.451875
-24.217001	117.181000	929.884033	3.303125	-6.321875	-5.678750
29.707001	131.272003	1019.554016	7.437500	-9.025625	-5.748750
57.096001	185.378998	1016.869995	3.110625	-7.573125	-1.203125
114.252998	142.069000	1090.680054	0.822500	0.809375	2.590000
24.521999	79.300003	1011.684998	-11.602500	17.443125	9.813125
-7.930000	9.211000	1043.832031	-14.249375	14.507500	11.471250
4.514000	-1.281000	964.898010	-5.398750	11.379375	-2.559375
-4.209000	0.610000	993.690002	-5.713750	0.271250	-6.606250
6.344000	-14.884000	978.562012	-1.325625	-3.381875	-7.262500
20.618000	-13.420000	955.199036	7.118125	9.511250	-6.706875
-15.128000	21.410999	971.242004	9.559375	1.181250	-0.253750
-4.148000	-5.429000	1013.454041	17.456249	-12.661250	-1.496250
1.281000	35.806999	986.674988	16.445625	-3.688125	1.286250
0.854000	20.618000	1002.840027	0.153125	-4.672500	6.072500
8.845000	-11.834001	1015.161987	-0.385000	-3.045000	10.136875
-10.370000	7.381000	1048.346069	5.512500	-0.411250	11.908750
-14.640000	10.797000	1020.835022	2.581250	-2.817500	11.322500
-4.148000	1.891000	1010.587036	-0.511875	-5.705000	8.023750
3.111000	41.174999	993.567993	1.246875	-5.753125	2.410625
6.283000	58.681999	1014.734985	-1.610000	-7.931875	0.026250
40.199001	56.608002	1068.902954	-0.997500	-4.165000	-2.563750
53.680000	73.566002	1038.952026	-2.953125	-4.847500	0.406875
49.897999	67.527000	1057.068970	-2.458750	-1.850625	2.043125
12.017000	75.091003	1008.452026	-0.341250	8.181250	2.813125
28.670000	73.688004	1048.529053	1.133125	12.451250	1.640625
-5.612000	52.887001	1018.333984	-1.115625	10.775625	4.843125
-13.847000	51.362000	986.126038	-2.086875	7.783125	-0.297500
-5.917000	35.014000	1024.983032	-1.203125	5.674375	-3.574375
-1.525000	59.353001	1016.809021	0.770000	-1.968750	-4.624375
30.866001	53.131001	1037.549072	2.410625	5.687500	0.319375
-13.115000	33.549999	1013.637024	1.701875	8.316875	3.119375
-4.941000	53.618999	1009.794006	5.267500	-0.503125	0.017500
-32.818001	9.028000	1000.888000	0.673750	13.921250	0.568750
-14.457000	66.246002	1004.731018	2.231250	10.696875	-0.310625
-6.893000	74.969002	1006.377991	2.848125	-4.904375	2.288125
-17.750999	50.325001	1012.294983	1.758750	-5.271875	2.463125
-51.362000	80.031998	1052.921021	-5.079375	6.895000	4.838750
-67.466003	57.157001	1054.079956	-6.260625	3.801875	1.365000
-42.761002	70.760002	1053.836060	-4.195625	-0.048125	-2.839375
-35.441002	56.852001	1037.609985	-0.752500	7.266875	-1.535625
-42.395000	66.551003	1002.596008	1.754375	5.993750	-0.678125
-23.180000	43.310001	1004.853027	4.112500	0.844375	4.755625
-30.561001	47.153000	1008.635010	3.058125	2.279375	3.915625
-31.842001	45.262001	1021.384033	9.100000	-4.663750	0.485625
-29.524000	94.245003	1029.497070	13.278125	-2.441250	-4.716250
-27.450001	97.904999	1030.777954	12.061875	3.640000	-4.725000
-38.735001	104.614998	1012.721985	8.588125	0.262500	-5.022500
-16.042999	98.271004	1005.096985	4.908750	2.708125	-1.671250
-55.083000	83.814003	937.936035	4.103750	4.217500	-0.564375
-4.697000	76.311005	877.546021	4.628750	-7.157500	5.748750
-52.764999	-16.348000	744.444031	7.490000	-17.451876	1.798125
12.017000	-96.989998	865.590027	-1.023750	-46.541248	-4.108125
65.453003	-97.599998	846.557983	5.241250	-47.617500	-10.250625
116.083000	-88.266998	908.778015	15.596875	-27.431250	-7.301875
115.900002	-65.086998	1032.973999	16.686251	-23.309999	-1.491875
108.885002	-18.422001	972.096008	11.891250	-27.877501	3.928750
168.970001	35.196999	1052.067017	12.429375	-49.192501	11.217500
194.589996	101.565002	1217.437988	20.523125	-39.707500	14.945000
138.287003	238.876007	1098.427002	17.184999	-14.380625	26.009375
139.445999	271.571991	1116.727051	14.638750	2.646875	27.654375
219.356003	246.623001	1077.808960	-22.299376	21.629999	20.492500
161.955002	337.208008	1095.864990	-7.017500	30.598749	22.443750
112.728004	301.096008	1016.260010	-12.499375	33.792500	21.420000
144.570007	269.985992	1015.161987	-21.594999	10.941875	9.839375
167.811005	146.156006	981.734009	-23.620625	2.012500	11.169375
156.953003	36.844002	996.984009	-24.263750	17.552500	11.427500
96.501999	-1.159000	948.549988	-13.409375	5.718125	8.995000
160.735001	-109.433998	974.291992	-3.088750	-7.840000	15.321250
105.712997	-94.183998	956.541016	12.495000	-14.385000	14.271250
196.419998	29.280001	1041.453003	37.183125	-29.876875	12.766250
157.929001	121.389999	1072.258057	30.795626	-26.232500	20.671875
205.813995	196.542007	1189.561035	2.235625	-11.309375	30.366875
221.307999	195.809998	1144.725952	-10.202500	-6.278125	37.362499
168.908997	125.965004	1079.822021	-10.123750	3.456250	45.653126
225.516998	73.749001	1110.566040	-6.811875	1.841875	39.593750
114.557999	61.183002	987.223999	-6.142500	-9.988125	37.764999
227.225006	2.135000	1096.170044	-2.065000	12.591250	35.328125
225.456009	98.881004	1016.015991	9.244375	12.075000	20.930000
225.699997	179.339996	1157.657959	10.180625	19.280624	25.361876
182.085007	132.858002	1106.052002	1.785000	22.434999	39.952499
235.399002	159.210007	1193.098999	-11.738125	37.187500	41.536251
171.410004	177.326996	1145.823975	-24.994375	40.494999	46.388126
169.458008	16.775000	1080.432007	-43.308125	32.340000	47.127499
181.292007	138.470001	1158.268066	-16.708124	21.818125	30.095625
150.059998	52.033001	1091.656006	-18.974375	50.264374	27.873125
37.698002	99.430000	1066.584961	-6.978125	42.577499	20.833750
75.334999	179.096008	1089.155029	16.205000	33.333126	21.065624
76.920998	297.436005	1067.378052	34.006874	49.783127	12.346250
-87.413002	167.688995	1080.310059	5.075000	71.050003	22.408751
-15.372000	207.949005	1051.395996	0.691250	63.822498	10.036250
-39.101002	176.900009	977.768982	2.393125	74.650627	10.066875
-174.520996	189.466003	935.191040	8.968750	85.207497	1.583750
-158.844009	201.056000	888.038025	9.922500	67.449371	2.279375
-311.649017	130.966995	736.819031	17.968124	52.106251	-12.888750
-261.385010	197.945007	772.809021	26.538750	40.586876	-39.480000
-236.130997	233.324997	673.257019	32.510624	11.987500	-43.448124
-344.772003	230.031006	760.182007	21.428749	18.414375	-41.838123
-288.713013	143.044998	745.298035	20.890625	13.597500	-48.426876
-323.910004	124.562004	796.233032	24.416876	11.615625	-60.143124
-241.011002	143.410995	787.570984	18.663750	-8.833125	-69.501251
-301.096008	93.573997	705.403992	16.016874	-11.816875	-55.523125
-298.533997	-15.006001	750.421997	11.733750	2.773750	-64.220627
-317.200012	38.003002	782.142029	8.999375	-31.320625	-71.203125
-236.130997	-79.726997	790.010986	16.012501	-13.527500	-59.775623
-315.858002	-34.403999	731.572998	24.285625	-19.385626	-55.733124
-406.687012	3.294000	646.905029	11.615625	-22.491875	-50.592499
-264.496002	-28.304001	816.668030	13.378750	-59.753750	-65.988129
-256.139008	-46.360001	892.674011	8.080625	-59.832500	-50.461250
-143.410995	-69.112999	935.984009	11.904375	-53.130001	-37.813126
-258.457001	-122.670998	908.838989	24.985624	-42.752499	-21.319374
-113.887001	-135.785995	1066.341064	19.853750	-48.606251	-42.818127
-101.625999	-63.195999	1027.301025	7.748125	-58.467499	-47.285000
-79.726997	-90.951004	992.713989	9.690625	-52.858749	-33.302502
16.775000	42.517002	1037.000000	10.023125	-46.165001	-39.786251
3.050000	-43.615002	976.488037	-13.133750	-32.191250	-12.455625
-114.009003	-209.962006	935.434998	-28.498751	-29.631874	-12.031250
-79.483002	-216.611008	1105.320068	-32.952499	-46.742500	-32.458126
31.171000	-136.884003	1156.499023	-24.233126	-51.248749	-28.293125
88.084000	-176.595001	994.848999	-2.611875	-30.065001	-9.607500
55.632000	-188.307007	1152.411987	5.683125	-21.700001	4.169375
64.843002	-105.224998	1059.326050	11.309375	-4.681250	10.333750
107.482002	-147.070999	1126.974976	11.086250	-15.106875	21.030624
96.196999	-46.055000	1183.338989	27.348125	-25.786249	28.980000
113.826004	-83.509003	1024.800049	32.296249	-1.172500	49.945000
131.393997	-27.450001	1064.023071	29.430626	-43.522499	28.385000
210.572006	12.383000	1061.156006	26.302500	-50.255627	29.137501
203.557007	59.414001	1208.348999	61.950001	-19.477501	29.220625
159.576004	199.225998	1171.260986	29.924999	-13.505625	41.304375
208.681000	151.402008	1173.030029	-2.918125	-24.745001	51.904999
262.483002	146.156006	1135.636963	-10.552500	-4.624375	55.098751
218.014008	106.932999	1110.016968	-30.130625	-8.649375	59.911251
249.977997	-3.538000	1096.170044	-11.786250	-24.088751	52.867500
252.296005	37.271000	1181.143066	-4.274375	-8.417500	43.049999
295.118011	11.163000	1151.313965	-13.387500	20.365625	49.958126
264.007996	20.434999	1143.201050	-29.373751	3.491250	54.398750
345.808990	-70.760002	1103.551025	-26.643749	2.489375	51.887501
302.621002	-13.176001	1127.951050	10.023125	29.321251	38.473751
285.846008	48.922001	1090.253052	6.063750	48.365623	38.618126
309.819000	40.320999	1126.487061	4.147500	47.853748	36.496250
261.080017	68.930000	1093.242065	0.402500	8.990625	33.210625
327.143005	-30.927000	1193.221069	-15.789375	-22.373751	39.926250
281.209991	86.558998	994.544006	-21.866249	-12.162500	44.813126
224.419006	-19.398001	1087.508057	-13.405000	22.999374	48.724377
168.725998	29.524000	1007.476013	4.235000	51.751877	43.207500
-34.282001	119.559998	982.039001	14.988750	45.447498	40.652500
61.183002	62.037003	1108.614014	10.880625	58.021252	14.783125
23.241001	100.223000	1054.506958	-0.984375	59.644375	11.913125
-41.358002	102.785004	1000.095032	18.952499	72.065002	-0.962500
-46.482002	130.417999	931.286987	33.254375	71.518127	5.210625
-137.371994	-1.403000	851.559998	28.809376	47.158127	12.381250
-76.737999	42.212002	953.734985	36.207500	36.294998	0.004375
-191.845001	79.848999	876.814026	38.504375	47.543125	-3.268125
-267.667999	154.878998	839.604004	1.741250	39.208752	-9.003750
-258.213013	126.391998	870.591980	5.381250	35.516251	-14.048125
-217.587006	102.175003	850.828003	8.474375	33.796875	-8.653750
-443.897003	97.599998	775.187988	19.757500	36.303749	-37.830624
